File: Gamry/CV_Beaker_AgWires.DTA
EXPLAIN
TAG	CV
TITLE	LABEL	Cyclic Voltammetry	Test &Identifier
DATE	LABEL	6-12-2022	Date
TIME	LABEL	9:53:09	Time
NOTES	NOTES	1	&Notes...

PSTAT	PSTAT	REF3000-20110	Potentiostat
VINIT	POTEN	-5.00000E-001	F	Initial &E (V)
VLIMIT1	POTEN	5.00000E-001	F	Scan Limit &1 (V)
VLIMIT2	POTEN	-5.00000E-001	F	Scan Limit &2 (V)
VFINAL	POTEN	0.00000E+000	F	Final &E (V)
SCANRATE	QUANT	9.99998E+001	&Scan Rate (mV/s)
STEPSIZE	QUANT	2.00000E+000	St&ep Size (mV)
CYCLES	IQUANT	3	C&ycles (#)
IMODE	SELECTOR	0	I/E Range &Mode
IRANGE	QUANT	3.00000E-001	&Max Current (mA)
AREA	QUANT	1.00000E+000	Electrode &Area (cm^2)
ELECTRODETYPE	SELECTOR	0	Electrode Type
STRIPPING	TOGGLE	F	Used for Stripping
CONDIT	TWOPARAM	F	1.50000E+001	0.00000E+000	Conditionin&g	Time(s)	E(V)
DELAY	TWOPARAM	F	3.00000E+001	0.00000E+000	Init. De&lay	Time(s)	Stab.(mV/s)
EQDELAY	QUANT	0.00000E+000	Equil. &Time (s)
IRCOMP	SELECTOR	0	IRCom&p
PFCOR	QUANT	5.00000E+001	PF Corr. (ohm)
SAMPLINGMODE	SELECTOR	1	Sampling &Mode
EOC	QUANT	0	Open Circuit (V)
PSTATMODEL	IQUANT	5	Pstat Model
PSTATSECTION	LABEL	REF3000-20110	Pstat Section
PSTATSERIALNO	LABEL	20110	Pstat Serial Number
CTRLMODE	IQUANT	1	Control Mode
ELECTROMETER	IQUANT	0	RE=0 or CS=1
IESTAB	IQUANT	2	I/E Stability
CASPEED	IQUANT	4	Control Amp Speed
CONVENTION	IQUANT	1	Current Convention
ICHRANGE	IQUANT	2	Ich Range
ICHRANGEMODE	TOGGLE	F	Ich Auto Range
ICHOFFSETENABLE	TOGGLE	F	Ich Offset Enable
ICHOFFSET	QUANT	0	Ich Offset (V)
ICHFILTER	IQUANT	2	Ich Filter
VCHRANGE	IQUANT	2	Vch Range
VCHRANGEMODE	TOGGLE	F	Vch Auto Range
VCHOFFSETENABLE	TOGGLE	F	Vch Offset Enable
VCHOFFSET	QUANT	0	Vch Offset (V)
VCHFILTER	IQUANT	2	Vch Filter
ACHRANGE	IQUANT	2	Ach Range
ACHOFFSETENABLE	TOGGLE	F	Ach Offset Enable
ACHOFFSET	QUANT	0	Ach Offset (V)
ACHFILTER	IQUANT	1	Ach Filter
IERANGELOWERLIMIT	IQUANT	2	I/E Range Lower Limit
IERANGEMODE	TOGGLE	T	I/E AutoRange
IERANGE	IQUANT	9	I/E Range
POSFEEDENABLE	TOGGLE	F	Positive Feedback IR Comp
POSFEEDRESISTANCE	QUANT	0	Positive Feedback Resistance (ohm)
ACHSELECT	IQUANT	4	Ach Select
SENSECABLEID	IQUANT	14	Sense Cable ID
PWRCABLEID	IQUANT	7	Power Cable ID
DCCALDATE	LABEL	8/9/2022	DC Calibration Date
ACCALDATE	LABEL	8/9/2022	AC Calibration Date
THERMOSELECT	IQUANT	1	Thermo Select
FRAMEWORKVERSION	LABEL	7.9.0	Framework Version
INSTRUMENTVERSION	LABEL	4.60	Instrument Version
COMPLIANCEVOLTAGE	IQUANT	0	Compliance Voltage
CURVE1	TABLE
	Pt	T	Vf	Im	Vu	Sig	Ach	IERange	Over	Temp
	#	s	V vs. Ref.	A	V	V	V	#	bits	deg C
	0	0.02	-4.99430E-001	3.28722E-003	0.00000E+000	-5.00000E-001	7.02576E-004	9	....ih.....	-327.63
	10	0.22	-4.78578E-001	8.84548E-003	0.00000E+000	-4.80000E-001	7.13410E-004	10	...........	-327.63
	20	0.42	-4.58635E-001	8.98993E-003	0.00000E+000	-4.60000E-001	7.30076E-004	10	...........	-327.63
	30	0.62	-4.38654E-001	8.86722E-003	0.00000E+000	-4.40000E-001	7.05076E-004	10	...........	-327.63
	40	0.82	-4.18684E-001	8.55369E-003	0.00000E+000	-4.20000E-001	7.27576E-004	10	...........	-327.63
	50	1.02	-3.98687E-001	8.09821E-003	0.00000E+000	-4.00000E-001	6.97576E-004	10	...........	-327.63
	60	1.22	-3.78718E-001	7.56608E-003	0.00000E+000	-3.80000E-001	7.18410E-004	10	...........	-327.63
	70	1.42	-3.58720E-001	6.98570E-003	0.00000E+000	-3.60000E-001	7.10910E-004	10	...........	-327.63
	80	1.62	-3.38743E-001	6.37980E-003	0.00000E+000	-3.40000E-001	7.23410E-004	10	...........	-327.63
	90	1.82	-3.18782E-001	5.75589E-003	0.00000E+000	-3.20000E-001	7.02576E-004	10	...........	-327.63
	100	2.02	-2.98808E-001	5.14948E-003	0.00000E+000	-3.00000E-001	7.21743E-004	10	...........	-327.63
	110	2.22	-2.78824E-001	4.59154E-003	0.00000E+000	-2.80000E-001	7.06743E-004	10	...........	-327.63
	120	2.42	-2.58832E-001	4.09135E-003	0.00000E+000	-2.60000E-001	7.17576E-004	10	...........	-327.63
	130	2.62	-2.38871E-001	3.66640E-003	0.00000E+000	-2.40000E-001	6.94243E-004	10	...........	-327.63
	140	2.82	-2.18871E-001	3.30985E-003	0.00000E+000	-2.20000E-001	7.22576E-004	10	...........	-327.63
	150	3.02	-1.98902E-001	3.02404E-003	0.00000E+000	-2.00000E-001	6.94243E-004	10	...........	-327.63
	160	3.22	-1.78927E-001	2.79935E-003	0.00000E+000	-1.80000E-001	7.15910E-004	10	...........	-327.63
	170	3.42	-1.58958E-001	2.62095E-003	0.00000E+000	-1.60000E-001	7.10076E-004	10	...........	-327.63
	180	3.62	-1.38985E-001	2.48623E-003	0.00000E+000	-1.40000E-001	7.08410E-004	10	...........	-327.63
	190	3.82	-1.19367E-001	2.38050E-003	0.00000E+000	-1.20000E-001	7.25076E-004	9	...........	-327.63
	200	4.02	-9.94098E-002	2.30238E-003	0.00000E+000	-1.00000E-001	7.11743E-004	9	...........	-327.63
	210	4.22	-7.94149E-002	2.24212E-003	0.00000E+000	-8.00000E-002	7.30076E-004	9	...........	-327.63
	220	4.42	-5.94536E-002	2.19157E-003	0.00000E+000	-6.00000E-002	7.10910E-004	9	...........	-327.63
	230	4.62	-3.94657E-002	2.15297E-003	0.00000E+000	-4.00000E-002	7.32576E-004	9	...........	-327.63
	240	4.82	-1.94890E-002	2.12147E-003	0.00000E+000	-2.00000E-002	7.22576E-004	9	...........	-327.63
	250	5.02	4.88897E-004	2.09722E-003	0.00000E+000	0.00000E+000	7.24243E-004	9	...........	-327.63
	260	5.22	2.04793E-002	2.07733E-003	0.00000E+000	2.00000E-002	7.15910E-004	9	...........	-327.63
	270	5.42	4.04501E-002	2.05824E-003	0.00000E+000	4.00000E-002	7.07576E-004	9	...........	-327.63
	280	5.62	6.04447E-002	2.04509E-003	0.00000E+000	6.00000E-002	7.16743E-004	9	...........	-327.63
	290	5.82	8.04051E-002	2.03520E-003	0.00000E+000	8.00000E-002	7.33410E-004	9	...........	-327.63
	300	6.02	1.00392E-001	2.02829E-003	0.00000E+000	1.00000E-001	7.09243E-004	9	...........	-327.63
	310	6.22	1.20336E-001	2.02391E-003	0.00000E+000	1.20000E-001	7.36743E-004	9	...........	-327.63
	320	6.42	1.40328E-001	2.02181E-003	0.00000E+000	1.40000E-001	7.01743E-004	9	...........	-327.63
	330	6.62	1.60290E-001	2.01832E-003	0.00000E+000	1.60000E-001	7.15076E-004	9	...........	-327.63
	340	6.82	1.80236E-001	2.01944E-003	0.00000E+000	1.80000E-001	7.06743E-004	9	...........	-327.63
	350	7.02	2.00237E-001	2.02310E-003	0.00000E+000	2.00000E-001	7.22576E-004	9	...........	-327.63
	360	7.22	2.20211E-001	2.02467E-003	0.00000E+000	2.20000E-001	7.09243E-004	9	...........	-327.63
	370	7.42	2.40198E-001	2.02933E-003	0.00000E+000	2.40000E-001	7.15910E-004	9	...........	-327.63
	380	7.62	2.60148E-001	2.03544E-003	0.00000E+000	2.60000E-001	7.23410E-004	9	...........	-327.63
	390	7.82	2.80135E-001	2.04307E-003	0.00000E+000	2.80000E-001	6.91743E-004	9	...........	-327.63
	400	8.02	3.00088E-001	2.05066E-003	0.00000E+000	3.00000E-001	7.17576E-004	9	...........	-327.63
	410	8.22	3.20034E-001	2.05706E-003	0.00000E+000	3.20000E-001	7.10910E-004	9	...........	-327.63
	420	8.42	3.40033E-001	2.06547E-003	0.00000E+000	3.40000E-001	7.05076E-004	9	...........	-327.63
	430	8.62	3.59983E-001	2.07534E-003	0.00000E+000	3.60000E-001	7.16743E-004	9	...........	-327.63
	440	8.82	3.79957E-001	2.08593E-003	0.00000E+000	3.80000E-001	7.36743E-004	9	...........	-327.63
	450	9.02	3.99924E-001	2.09671E-003	0.00000E+000	4.00000E-001	6.88410E-004	9	...........	-327.63
	460	9.22	4.19905E-001	2.10507E-003	0.00000E+000	4.20000E-001	7.10076E-004	9	...........	-327.63
	470	9.42	4.39853E-001	2.11845E-003	0.00000E+000	4.40000E-001	7.04243E-004	9	...........	-327.63
	480	9.62	4.59832E-001	2.13295E-003	0.00000E+000	4.60000E-001	7.27576E-004	9	...........	-327.63
	490	9.82	4.79784E-001	2.14220E-003	0.00000E+000	4.80000E-001	7.09243E-004	9	...........	-327.63
	500	10.02	4.99746E-001	2.15540E-003	0.00000E+000	5.00000E-001	7.32576E-004	9	...........	-327.63
	510	10.22	4.79788E-001	2.11528E-003	0.00000E+000	4.80000E-001	7.08410E-004	9	...........	-327.63
	520	10.42	4.59853E-001	2.07986E-003	0.00000E+000	4.60000E-001	7.28410E-004	9	...........	-327.63
	530	10.62	4.39879E-001	2.04841E-003	0.00000E+000	4.40000E-001	7.25076E-004	9	...........	-327.63
	540	10.82	4.19911E-001	2.01862E-003	0.00000E+000	4.20000E-001	7.16743E-004	9	...........	-327.63
	550	11.02	3.99938E-001	1.98861E-003	0.00000E+000	4.00000E-001	7.01743E-004	9	...........	-327.63
	560	11.22	3.79983E-001	1.96109E-003	0.00000E+000	3.80000E-001	7.04243E-004	9	...........	-327.63
	570	11.42	3.60012E-001	1.93423E-003	0.00000E+000	3.60000E-001	7.17576E-004	9	...........	-327.63
	580	11.62	3.40049E-001	1.91114E-003	0.00000E+000	3.40000E-001	7.06743E-004	9	...........	-327.63
	590	11.82	3.20079E-001	1.88539E-003	0.00000E+000	3.20000E-001	6.95076E-004	9	...........	-327.63
	600	12.02	3.00107E-001	1.86213E-003	0.00000E+000	3.00000E-001	6.95910E-004	9	...........	-327.63
	610	12.22	2.80167E-001	1.83835E-003	0.00000E+000	2.80000E-001	7.43410E-004	9	...........	-327.63
	620	12.42	2.60173E-001	1.81559E-003	0.00000E+000	2.60000E-001	6.96743E-004	9	...........	-327.63
	630	12.62	2.40218E-001	1.79261E-003	0.00000E+000	2.40000E-001	7.11743E-004	9	...........	-327.63
	640	12.82	2.20228E-001	1.77019E-003	0.00000E+000	2.20000E-001	7.00910E-004	9	...........	-327.63
	650	13.02	2.00272E-001	1.74740E-003	0.00000E+000	2.00000E-001	7.35076E-004	9	...........	-327.63
	660	13.22	1.80288E-001	1.72501E-003	0.00000E+000	1.80000E-001	6.95910E-004	9	...........	-327.63
	670	13.42	1.60340E-001	1.70363E-003	0.00000E+000	1.60000E-001	7.29243E-004	9	...........	-327.63
	680	13.62	1.40375E-001	1.68077E-003	0.00000E+000	1.40000E-001	6.98410E-004	9	...........	-327.63
	690	13.82	1.20374E-001	1.65991E-003	0.00000E+000	1.20000E-001	7.39243E-004	9	...........	-327.63
	700	14.02	1.00447E-001	1.64010E-003	0.00000E+000	1.00000E-001	7.00910E-004	9	...........	-327.63
	710	14.22	8.04793E-002	1.61748E-003	0.00000E+000	8.00000E-002	7.18410E-004	9	...........	-327.63
	720	14.42	6.04902E-002	1.59782E-003	0.00000E+000	6.00000E-002	7.06743E-004	9	...........	-327.63
	730	14.62	4.05181E-002	1.57765E-003	0.00000E+000	4.00000E-002	7.22576E-004	9	...........	-327.63
	740	14.82	2.05589E-002	1.55760E-003	0.00000E+000	2.00000E-002	7.30076E-004	9	...........	-327.63
	750	15.02	5.58897E-004	1.53803E-003	0.00000E+000	0.00000E+000	7.38410E-004	9	...........	-327.63
	760	15.22	-1.94124E-002	1.51924E-003	0.00000E+000	-2.00000E-002	7.25910E-004	9	...........	-327.63
	770	15.42	-3.93807E-002	1.50015E-003	0.00000E+000	-4.00000E-002	7.36743E-004	9	...........	-327.63
	780	15.62	-5.93582E-002	1.47978E-003	0.00000E+000	-6.00000E-002	6.94243E-004	9	...........	-327.63
	790	15.82	-7.93269E-002	1.46037E-003	0.00000E+000	-8.00000E-002	7.33410E-004	9	...........	-327.63
	800	16.02	-9.92982E-002	1.44078E-003	0.00000E+000	-1.00000E-001	7.05076E-004	9	...........	-327.63
	810	16.22	-1.19249E-001	1.42265E-003	0.00000E+000	-1.20000E-001	7.32576E-004	9	...........	-327.63
	820	16.42	-1.39245E-001	1.40377E-003	0.00000E+000	-1.40000E-001	6.90076E-004	9	...........	-327.63
	830	16.62	-1.59161E-001	1.38435E-003	0.00000E+000	-1.60000E-001	7.18410E-004	9	...........	-327.63
	840	16.82	-1.79162E-001	1.36531E-003	0.00000E+000	-1.80000E-001	7.14243E-004	9	...........	-327.63
	850	17.02	-1.99122E-001	1.34673E-003	0.00000E+000	-2.00000E-001	7.04243E-004	9	...........	-327.63
	860	17.22	-2.19089E-001	1.32790E-003	0.00000E+000	-2.20000E-001	7.07576E-004	9	...........	-327.63
	870	17.42	-2.39060E-001	1.30775E-003	0.00000E+000	-2.40000E-001	7.05076E-004	9	...........	-327.63
	880	17.62	-2.59018E-001	1.28912E-003	0.00000E+000	-2.60000E-001	7.23410E-004	9	...........	-327.63
	890	17.82	-2.78993E-001	1.26963E-003	0.00000E+000	-2.80000E-001	7.05076E-004	9	...........	-327.63
	900	18.02	-2.98962E-001	1.25020E-003	0.00000E+000	-3.00000E-001	7.21743E-004	9	...........	-327.63
	910	18.22	-3.18938E-001	1.23135E-003	0.00000E+000	-3.20000E-001	6.95910E-004	9	...........	-327.63
	920	18.42	-3.38908E-001	1.21123E-003	0.00000E+000	-3.40000E-001	7.26743E-004	9	...........	-327.63
	930	18.62	-3.58868E-001	1.19069E-003	0.00000E+000	-3.60000E-001	7.05910E-004	9	...........	-327.63
	940	18.82	-3.78853E-001	1.16947E-003	0.00000E+000	-3.80000E-001	7.19243E-004	9	...........	-327.63
	950	19.02	-3.98816E-001	1.14784E-003	0.00000E+000	-4.00000E-001	7.05076E-004	9	...........	-327.63
	960	19.22	-4.18786E-001	1.12410E-003	0.00000E+000	-4.20000E-001	7.30910E-004	9	...........	-327.63
	970	19.42	-4.38754E-001	1.10043E-003	0.00000E+000	-4.40000E-001	7.19243E-004	9	...........	-327.63
	980	19.62	-4.58712E-001	1.07523E-003	0.00000E+000	-4.60000E-001	7.44243E-004	9	...........	-327.63
	990	19.82	-4.78682E-001	1.04966E-003	0.00000E+000	-4.80000E-001	7.30076E-004	9	...........	-327.63
	1000	20.02	-4.98655E-001	1.02306E-003	0.00000E+000	-5.00000E-001	7.15076E-004	9	...........	-327.63
CURVE2	TABLE
	Pt	T	Vf	Im	Vu	Sig	Ach	IERange	Over	Temp
	#	s	V vs. Ref.	A	V	V	V	#	bits	deg C
	1001	20.04	-4.96653E-001	1.03035E-003	0.00000E+000	-4.98000E-001	6.15076E-004	9	...........	-327.63
	1011	20.24	-4.76671E-001	1.08296E-003	0.00000E+000	-4.78000E-001	6.40076E-004	9	...........	-327.63
	1021	20.44	-4.56708E-001	1.12793E-003	0.00000E+000	-4.58000E-001	6.44243E-004	9	...........	-327.63
	1031	20.64	-4.36740E-001	1.16703E-003	0.00000E+000	-4.38000E-001	6.36743E-004	9	...........	-327.63
	1041	20.84	-4.16771E-001	1.20353E-003	0.00000E+000	-4.18000E-001	6.25910E-004	9	...........	-327.63
	1051	21.04	-3.96830E-001	1.23738E-003	0.00000E+000	-3.98000E-001	6.10910E-004	9	...........	-327.63
	1061	21.24	-3.76846E-001	1.26925E-003	0.00000E+000	-3.78000E-001	6.10910E-004	9	...........	-327.63
	1071	21.44	-3.56894E-001	1.29757E-003	0.00000E+000	-3.58000E-001	4.36743E-004	9	...........	-327.63
	1081	21.64	-3.36925E-001	1.32331E-003	0.00000E+000	-3.38000E-001	4.35910E-004	9	...........	-327.63
	1091	21.84	-3.16962E-001	1.34654E-003	0.00000E+000	-3.18000E-001	4.30910E-004	9	...........	-327.63
	1101	22.04	-2.96997E-001	1.36930E-003	0.00000E+000	-2.98000E-001	4.36743E-004	9	...........	-327.63
	1111	22.24	-2.77042E-001	1.38939E-003	0.00000E+000	-2.78000E-001	4.10910E-004	9	...........	-327.63
	1121	22.44	-2.57049E-001	1.40863E-003	0.00000E+000	-2.58000E-001	4.20076E-004	9	...........	-327.63
	1131	22.64	-2.37096E-001	1.42796E-003	0.00000E+000	-2.38000E-001	4.22576E-004	9	...........	-327.63
	1141	22.84	-2.17129E-001	1.44566E-003	0.00000E+000	-2.18000E-001	3.94243E-004	9	...........	-327.63
	1151	23.04	-1.97145E-001	1.46354E-003	0.00000E+000	-1.98000E-001	4.06743E-004	9	...........	-327.63
	1161	23.24	-1.77175E-001	1.48136E-003	0.00000E+000	-1.78000E-001	3.79243E-004	9	...........	-327.63
	1171	23.44	-1.57198E-001	1.50047E-003	0.00000E+000	-1.58000E-001	4.37576E-004	9	...........	-327.63
	1181	23.64	-1.37254E-001	1.51597E-003	0.00000E+000	-1.38000E-001	4.02576E-004	9	...........	-327.63
	1191	23.84	-1.17262E-001	1.53527E-003	0.00000E+000	-1.18000E-001	4.21743E-004	9	...........	-327.63
	1201	24.04	-9.73094E-002	1.55235E-003	0.00000E+000	-9.80000E-002	3.72576E-004	9	...........	-327.63
	1211	24.24	-7.73278E-002	1.57154E-003	0.00000E+000	-7.80000E-002	4.16743E-004	9	...........	-327.63
	1221	24.44	-5.73494E-002	1.58810E-003	0.00000E+000	-5.80000E-002	3.84243E-004	9	...........	-327.63
	1231	24.64	-3.74061E-002	1.60720E-003	0.00000E+000	-3.80000E-002	4.42576E-004	9	...........	-327.63
	1241	24.84	-1.73994E-002	1.62451E-003	0.00000E+000	-1.80000E-002	4.13410E-004	9	...........	-327.63
	1251	25.04	2.57973E-003	1.64187E-003	0.00000E+000	2.00000E-003	4.15910E-004	9	...........	-327.63
	1261	25.24	2.25606E-002	1.66049E-003	0.00000E+000	2.20000E-002	3.85076E-004	9	...........	-327.63
	1271	25.44	4.25210E-002	1.67739E-003	0.00000E+000	4.20000E-002	4.16743E-004	9	...........	-327.63
	1281	25.64	6.24885E-002	1.69497E-003	0.00000E+000	6.20000E-002	4.10910E-004	9	...........	-327.63
	1291	25.84	8.24581E-002	1.71189E-003	0.00000E+000	8.20000E-002	4.20076E-004	9	...........	-327.63
	1301	26.04	1.02419E-001	1.72970E-003	0.00000E+000	1.02000E-001	4.37576E-004	9	...........	-327.63
	1311	26.24	1.22371E-001	1.74919E-003	0.00000E+000	1.22000E-001	4.45910E-004	9	...........	-327.63
	1321	26.44	1.42330E-001	1.76408E-003	0.00000E+000	1.42000E-001	4.41743E-004	9	...........	-327.63
	1331	26.64	1.62329E-001	1.78098E-003	0.00000E+000	1.62000E-001	4.28410E-004	9	...........	-327.63
	1341	26.84	1.82282E-001	1.79852E-003	0.00000E+000	1.82000E-001	4.32576E-004	9	...........	-327.63
	1351	27.04	2.02266E-001	1.81687E-003	0.00000E+000	2.02000E-001	4.20076E-004	9	...........	-327.63
	1361	27.24	2.22219E-001	1.83157E-003	0.00000E+000	2.22000E-001	4.34243E-004	9	...........	-327.63
	1371	27.44	2.42226E-001	1.84853E-003	0.00000E+000	2.42000E-001	4.25076E-004	9	...........	-327.63
	1381	27.64	2.62151E-001	1.86587E-003	0.00000E+000	2.62000E-001	4.07576E-004	9	...........	-327.63
	1391	27.84	2.82118E-001	1.88436E-003	0.00000E+000	2.82000E-001	4.17576E-004	9	...........	-327.63
	1401	28.04	3.02115E-001	1.90014E-003	0.00000E+000	3.02000E-001	3.95076E-004	9	...........	-327.63
	1411	28.24	3.22051E-001	1.91502E-003	0.00000E+000	3.22000E-001	4.19243E-004	9	...........	-327.63
	1421	28.44	3.42033E-001	1.93361E-003	0.00000E+000	3.42000E-001	4.04243E-004	9	...........	-327.63
	1431	28.64	3.62009E-001	1.94943E-003	0.00000E+000	3.62000E-001	3.66743E-004	9	...........	-327.63
	1441	28.84	3.81975E-001	1.96391E-003	0.00000E+000	3.82000E-001	3.95076E-004	9	...........	-327.63
	1451	29.04	4.01933E-001	1.97833E-003	0.00000E+000	4.02000E-001	3.85076E-004	9	...........	-327.63
	1461	29.24	4.21912E-001	1.99546E-003	0.00000E+000	4.22000E-001	4.14243E-004	9	...........	-327.63
	1471	29.44	4.41890E-001	2.01260E-003	0.00000E+000	4.42000E-001	3.69243E-004	9	...........	-327.63
[...]
	3000	60.02	-4.98663E-001	8.98766E-004	0.00000E+000	-5.00000E-001	4.19243E-004	9	...........	-327.63
CURVE4	TABLE
	Pt	T	Vf	Im	Vu	Sig	Ach	IERange	Over	Temp
	#	s	V vs. Ref.	A	V	V	V	#	bits	deg C
	3001	60.04	-4.96657E-001	9.04015E-004	0.00000E+000	-4.98000E-001	4.19243E-004	9	...........	-327.63
	3004	60.1	-4.90678E-001	9.18888E-004	0.00000E+000	-4.92000E-001	4.06743E-004	9	...........	-327.63
	3007	60.16	-4.84666E-001	9.34080E-004	0.00000E+000	-4.86000E-001	4.09243E-004	9	...........	-327.63
	3010	60.22	-4.78681E-001	9.46133E-004	0.00000E+000	-4.80000E-001	4.05910E-004	9	...........	-327.63
	3013	60.28	-4.72703E-001	9.57548E-004	0.00000E+000	-4.74000E-001	4.30910E-004	9	...........	-327.63
	3016	60.34	-4.66714E-001	9.71051E-004	0.00000E+000	-4.68000E-001	4.10076E-004	9	...........	-327.63
	3019	60.4	-4.60715E-001	9.82727E-004	0.00000E+000	-4.62000E-001	4.28410E-004	9	...........	-327.63
	3022	60.46	-4.54741E-001	9.93759E-004	0.00000E+000	-4.56000E-001	4.00076E-004	9	...........	-327.63
	3025	60.52	-4.48728E-001	1.00458E-003	0.00000E+000	-4.50000E-001	4.55076E-004	9	...........	-327.63
	3028	60.58	-4.42754E-001	1.01517E-003	0.00000E+000	-4.44000E-001	3.86743E-004	9	...........	-327.63
	3031	60.64	-4.36738E-001	1.02529E-003	0.00000E+000	-4.38000E-001	4.32576E-004	9	...........	-327.63
	3034	60.7	-4.30779E-001	1.03514E-003	0.00000E+000	-4.32000E-001	3.90910E-004	9	...........	-327.63
	3037	60.76	-4.24775E-001	1.04496E-003	0.00000E+000	-4.26000E-001	4.50076E-004	9	...........	-327.63
	3040	60.82	-4.18801E-001	1.05491E-003	0.00000E+000	-4.20000E-001	3.93410E-004	9	...........	-327.63
	3043	60.88	-4.12802E-001	1.06435E-003	0.00000E+000	-4.14000E-001	4.41743E-004	9	...........	-327.63
	3046	60.94	-4.06837E-001	1.07334E-003	0.00000E+000	-4.08000E-001	4.07576E-004	9	...........	-327.63
	3049	61	-4.00828E-001	1.08266E-003	0.00000E+000	-4.02000E-001	4.39243E-004	9	...........	-327.63
	3052	61.06	-3.94860E-001	1.09069E-003	0.00000E+000	-3.96000E-001	3.98410E-004	9	...........	-327.63
	3055	61.12	-3.88858E-001	1.09852E-003	0.00000E+000	-3.90000E-001	4.42576E-004	9	...........	-327.63
	3058	61.18	-3.82874E-001	1.10604E-003	0.00000E+000	-3.84000E-001	4.05910E-004	9	...........	-327.63
	3061	61.24	-3.76858E-001	1.11423E-003	0.00000E+000	-3.78000E-001	4.35910E-004	9	...........	-327.63
	3064	61.3	-3.70902E-001	1.12116E-003	0.00000E+000	-3.72000E-001	3.77576E-004	9	...........	-327.63
	3067	61.36	-3.64874E-001	1.12939E-003	0.00000E+000	-3.66000E-001	4.30076E-004	9	...........	-327.63
	3070	61.42	-3.58886E-001	1.13640E-003	0.00000E+000	-3.60000E-001	4.08410E-004	9	...........	-327.63
	3073	61.48	-3.52910E-001	1.14396E-003	0.00000E+000	-3.54000E-001	4.20076E-004	9	...........	-327.63
	3076	61.54	-3.46909E-001	1.15064E-003	0.00000E+000	-3.48000E-001	4.04243E-004	9	...........	-327.63
	3079	61.6	-3.40929E-001	1.15755E-003	0.00000E+000	-3.42000E-001	4.30076E-004	9	...........	-327.63
	3082	61.66	-3.34938E-001	1.16417E-003	0.00000E+000	-3.36000E-001	4.16743E-004	9	...........	-327.63
	3085	61.72	-3.28951E-001	1.17132E-003	0.00000E+000	-3.30000E-001	4.28410E-004	9	...........	-327.63
	3088	61.78	-3.22939E-001	1.17796E-003	0.00000E+000	-3.24000E-001	3.72576E-004	9	...........	-327.63
	3091	61.84	-3.16967E-001	1.18426E-003	0.00000E+000	-3.18000E-001	4.24243E-004	9	...........	-327.63
	3094	61.9	-3.10963E-001	1.19038E-003	0.00000E+000	-3.12000E-001	4.22576E-004	9	...........	-327.63
	3097	61.96	-3.05002E-001	1.19617E-003	0.00000E+000	-3.06000E-001	4.15076E-004	9	...........	-327.63
	3100	62.02	-2.98979E-001	1.20278E-003	0.00000E+000	-3.00000E-001	4.02576E-004	9	...........	-327.63
	3103	62.08	-2.93030E-001	1.20877E-003	0.00000E+000	-2.94000E-001	4.33410E-004	9	...........	-327.63
	3106	62.14	-2.87002E-001	1.21504E-003	0.00000E+000	-2.88000E-001	4.18410E-004	9	...........	-327.63
	3109	62.2	-2.81039E-001	1.22183E-003	0.00000E+000	-2.82000E-001	4.15076E-004	9	...........	-327.63
	3112	62.26	-2.75019E-001	1.22792E-003	0.00000E+000	-2.76000E-001	3.95910E-004	9	...........	-327.63
	3115	62.32	-2.69034E-001	1.23410E-003	0.00000E+000	-2.70000E-001	4.33410E-004	9	...........	-327.63
	3118	62.38	-2.63043E-001	1.23990E-003	0.00000E+000	-2.64000E-001	4.17576E-004	9	...........	-327.63
	3121	62.44	-2.57051E-001	1.24548E-003	0.00000E+000	-2.58000E-001	4.25910E-004	9	...........	-327.63
	3124	62.5	-2.51069E-001	1.25046E-003	0.00000E+000	-2.52000E-001	4.20076E-004	9	...........	-327.63
	3127	62.56	-2.45078E-001	1.25639E-003	0.00000E+000	-2.46000E-001	4.21743E-004	9	...........	-327.63
	3130	62.62	-2.39093E-001	1.26198E-003	0.00000E+000	-2.40000E-001	4.40910E-004	9	...........	-327.63
	3133	62.68	-2.33103E-001	1.26727E-003	0.00000E+000	-2.34000E-001	4.00910E-004	9	...........	-327.63
	3136	62.74	-2.27091E-001	1.27238E-003	0.00000E+000	-2.28000E-001	4.09243E-004	9	...........	-327.63
	3139	62.8	-2.21113E-001	1.27864E-003	0.00000E+000	-2.22000E-001	4.21743E-004	9	...........	-327.63
	3142	62.86	-2.15134E-001	1.28432E-003	0.00000E+000	-2.16000E-001	4.37576E-004	9	...........	-327.63
	3145	62.92	-2.09132E-001	1.28979E-003	0.00000E+000	-2.10000E-001	3.89243E-004	9	...........	-327.63
	3148	62.98	-2.03130E-001	1.29530E-003	0.00000E+000	-2.04000E-001	4.20076E-004	9	...........	-327.63
	3151	63.04	-1.97158E-001	1.29992E-003	0.00000E+000	-1.98000E-001	3.97576E-004	9	...........	-327.63
	3154	63.1	-1.91171E-001	1.30538E-003	0.00000E+000	-1.92000E-001	4.48410E-004	9	...........	-327.63
	3157	63.16	-1.85162E-001	1.31278E-003	0.00000E+000	-1.86000E-001	4.06743E-004	9	...........	-327.63
	3160	63.22	-1.79162E-001	1.31893E-003	0.00000E+000	-1.80000E-001	4.39243E-004	9	...........	-327.63
	3163	63.28	-1.73194E-001	1.32353E-003	0.00000E+000	-1.74000E-001	3.88410E-004	9	...........	-327.63
	3166	63.34	-1.67195E-001	1.32950E-003	0.00000E+000	-1.68000E-001	4.40910E-004	9	...........	-327.63
	3169	63.4	-1.61197E-001	1.33379E-003	0.00000E+000	-1.62000E-001	3.95076E-004	9	...........	-327.63
	3172	63.46	-1.55206E-001	1.34040E-003	0.00000E+000	-1.56000E-001	4.36743E-004	9	...........	-327.63
	3175	63.52	-1.49238E-001	1.34284E-003	0.00000E+000	-1.50000E-001	4.06743E-004	9	...........	-327.63
	3178	63.58	-1.43230E-001	1.34732E-003	0.00000E+000	-1.44000E-001	4.33410E-004	9	...........	-327.63
	3181	63.64	-1.37262E-001	1.35231E-003	0.00000E+000	-1.38000E-001	3.72576E-004	9	...........	-327.63
	3184	63.7	-1.31252E-001	1.35763E-003	0.00000E+000	-1.32000E-001	4.39243E-004	9	...........	-327.63
	3187	63.76	-1.25270E-001	1.36354E-003	0.00000E+000	-1.26000E-001	4.15076E-004	9	...........	-327.63
	3190	63.82	-1.19269E-001	1.36827E-003	0.00000E+000	-1.20000E-001	4.35076E-004	9	...........	-327.63
	3193	63.88	-1.13288E-001	1.37388E-003	0.00000E+000	-1.14000E-001	4.07576E-004	9	...........	-327.63
	3196	63.94	-1.07294E-001	1.37930E-003	0.00000E+000	-1.08000E-001	4.35076E-004	9	...........	-327.63
	3199	64	-1.01316E-001	1.38349E-003	0.00000E+000	-1.02000E-001	4.06743E-004	9	...........	-327.63
	3202	64.06	-9.53149E-002	1.39249E-003	0.00000E+000	-9.60000E-002	4.30076E-004	9	...........	-327.63
	3205	64.12	-8.93278E-002	1.39589E-003	0.00000E+000	-9.00000E-002	3.91743E-004	9	...........	-327.63
	3208	64.18	-8.33419E-002	1.40126E-003	0.00000E+000	-8.40000E-002	4.21743E-004	9	...........	-327.63
	3211	64.24	-7.73448E-002	1.40659E-003	0.00000E+000	-7.80000E-002	4.18410E-004	9	...........	-327.63
	3214	64.3	-7.13578E-002	1.41283E-003	0.00000E+000	-7.20000E-002	4.30910E-004	9	...........	-327.63
	3217	64.36	-6.53415E-002	1.41781E-003	0.00000E+000	-6.60000E-002	4.07576E-004	9	...........	-327.63
	3220	64.42	-5.93748E-002	1.42422E-003	0.00000E+000	-6.00000E-002	4.27576E-004	9	...........	-327.63
	3223	64.48	-5.33740E-002	1.42875E-003	0.00000E+000	-5.40000E-002	4.18410E-004	9	...........	-327.63
	3226	64.54	-4.73878E-002	1.43449E-003	0.00000E+000	-4.80000E-002	4.33410E-004	9	...........	-327.63
	3229	64.6	-4.14032E-002	1.44037E-003	0.00000E+000	-4.20000E-002	4.02576E-004	9	...........	-327.63
	3232	64.66	-3.54273E-002	1.44625E-003	0.00000E+000	-3.60000E-002	4.27576E-004	9	...........	-327.63
	3235	64.72	-2.94140E-002	1.45201E-003	0.00000E+000	-3.00000E-002	4.07576E-004	9	...........	-327.63
	3238	64.78	-2.34253E-002	1.45823E-003	0.00000E+000	-2.40000E-002	4.41743E-004	9	...........	-327.63
	3241	64.84	-1.74165E-002	1.46296E-003	0.00000E+000	-1.80000E-002	3.85910E-004	9	...........	-327.63
	3244	64.9	-1.14769E-002	1.46881E-003	0.00000E+000	-1.20000E-002	4.39243E-004	9	...........	-327.63
	3247	64.96	-5.43277E-003	1.47398E-003	0.00000E+000	-6.00000E-003	4.20076E-004	9	...........	-327.63
	3250	65.02	5.51398E-004	1.47966E-003	0.00000E+000	0.00000E+000	4.27576E-004	9	...........	-327.63