File: Gamry/CV_fullWindow_openCircuit.DTA
EXPLAIN
TAG	CV
TITLE	LABEL	Cyclic Voltammetry	Test &Identifier
DATE	LABEL	5-12-2022	Date
TIME	LABEL	13:27:15	Time
NOTES	NOTES	1	&Notes...

PSTAT	PSTAT	REF3000-20110	Potentiostat
VINIT	POTEN	0.00000E+000	F	Initial &E (V)
VLIMIT1	POTEN	5.00000E-001	F	Scan Limit &1 (V)
VLIMIT2	POTEN	-5.00000E-001	F	Scan Limit &2 (V)
VFINAL	POTEN	0.00000E+000	F	Final &E (V)
SCANRATE	QUANT	9.99998E+001	&Scan Rate (mV/s)
STEPSIZE	QUANT	2.00000E+000	St&ep Size (mV)
CYCLES	IQUANT	3	C&ycles (#)
IMODE	SELECTOR	0	I/E Range &Mode
IRANGE	QUANT	3.00000E-001	&Max Current (mA)
AREA	QUANT	1.00000E+000	Electrode &Area (cm^2)
ELECTRODETYPE	SELECTOR	0	Electrode Type
STRIPPING	TOGGLE	F	Used for Stripping
CONDIT	TWOPARAM	F	1.50000E+001	0.00000E+000	Conditionin&g	Time(s)	E(V)
DELAY	TWOPARAM	F	3.00000E+001	0.00000E+000	Init. De&lay	Time(s)	Stab.(mV/s)
EQDELAY	QUANT	0.00000E+000	Equil. &Time (s)
IRCOMP	SELECTOR	0	IRCom&p
PFCOR	QUANT	5.00000E+001	PF Corr. (ohm)
SAMPLINGMODE	SELECTOR	1	Sampling &Mode
EOC	QUANT	0	Open Circuit (V)
PSTATMODEL	IQUANT	5	Pstat Model
PSTATSECTION	LABEL	REF3000-20110	Pstat Section
PSTATSERIALNO	LABEL	20110	Pstat Serial Number
CTRLMODE	IQUANT	1	Control Mode
ELECTROMETER	IQUANT	0	RE=0 or CS=1
IESTAB	IQUANT	2	I/E Stability
CASPEED	IQUANT	4	Control Amp Speed
CONVENTION	IQUANT	1	Current Convention
ICHRANGE	IQUANT	2	Ich Range
ICHRANGEMODE	TOGGLE	F	Ich Auto Range
ICHOFFSETENABLE	TOGGLE	F	Ich Offset Enable
ICHOFFSET	QUANT	0	Ich Offset (V)
ICHFILTER	IQUANT	2	Ich Filter
VCHRANGE	IQUANT	2	Vch Range
VCHRANGEMODE	TOGGLE	F	Vch Auto Range
VCHOFFSETENABLE	TOGGLE	F	Vch Offset Enable
VCHOFFSET	QUANT	0	Vch Offset (V)
VCHFILTER	IQUANT	2	Vch Filter
ACHRANGE	IQUANT	2	Ach Range
ACHOFFSETENABLE	TOGGLE	F	Ach Offset Enable
ACHOFFSET	QUANT	0	Ach Offset (V)
ACHFILTER	IQUANT	1	Ach Filter
IERANGELOWERLIMIT	IQUANT	2	I/E Range Lower Limit
IERANGEMODE	TOGGLE	T	I/E AutoRange
IERANGE	IQUANT	9	I/E Range
POSFEEDENABLE	TOGGLE	F	Positive Feedback IR Comp
POSFEEDRESISTANCE	QUANT	0	Positive Feedback Resistance (ohm)
ACHSELECT	IQUANT	4	Ach Select
SENSECABLEID	IQUANT	14	Sense Cable ID
PWRCABLEID	IQUANT	7	Power Cable ID
DCCALDATE	LABEL	8/9/2022	DC Calibration Date
ACCALDATE	LABEL	8/9/2022	AC Calibration Date
THERMOSELECT	IQUANT	1	Thermo Select
FRAMEWORKVERSION	LABEL	7.9.0	Framework Version
INSTRUMENTVERSION	LABEL	4.60	Instrument Version
COMPLIANCEVOLTAGE	IQUANT	0	Compliance Voltage
CURVE1	TABLE
	Pt	T	Vf	Im	Vu	Sig	Ach	IERange	Over	Temp
	#	s	V vs. Ref.	A	V	V	V	#	bits	deg C
	0	0.02	3.38897E-004	-5.18246E-008	0.00000E+000	0.00000E+000	7.18410E-004	9	...........	-327.63
	8	0.18	1.63388E-002	-7.94978E-010	0.00000E+000	1.60000E-002	7.00076E-004	7	...........	-327.63
	16	0.34	3.22563E-002	-4.53299E-010	0.00000E+000	3.20000E-002	7.10910E-004	7	...........	-327.63
	24	0.5	4.81063E-002	-1.61621E-010	0.00000E+000	4.80000E-002	7.02576E-004	7	...........	-327.63
	32	0.66	6.40772E-002	-5.32836E-011	0.00000E+000	6.40000E-002	7.01743E-004	7	...........	-327.63
	40	0.82	7.99388E-002	3.34231E-010	0.00000E+000	8.00000E-002	6.97576E-004	7	...........	-327.63
	48	0.98	9.58059E-002	6.46742E-010	0.00000E+000	9.60000E-002	7.05076E-004	7	...........	-327.63
	56	1.14	1.11708E-001	1.02176E-009	0.00000E+000	1.12000E-001	7.07576E-004	7	...........	-327.63
	64	1.3	1.04789E-001	1.25927E-009	0.00000E+000	1.28000E-001	7.05910E-004	7	..ch.......	-327.63
	72	1.46	1.21375E-001	1.26760E-009	0.00000E+000	1.44000E-001	6.96743E-004	7	..ch.......	-327.63
	80	1.62	1.14353E-001	1.67595E-009	0.00000E+000	1.60000E-001	7.23410E-004	7	..ch.......	-327.63
	88	1.78	1.04973E-001	1.99263E-009	0.00000E+000	1.76000E-001	7.15076E-004	7	..ch.......	-327.63
	96	1.94	1.91367E-001	2.09680E-009	0.00000E+000	1.92000E-001	7.09243E-004	7	...........	-327.63
	104	2.1	2.07310E-001	2.50515E-009	0.00000E+000	2.08000E-001	7.05910E-004	7	...........	-327.63
	112	2.26	2.23238E-001	2.75932E-009	0.00000E+000	2.24000E-001	6.96743E-004	7	...........	-327.63
	120	2.42	2.39151E-001	3.18850E-009	0.00000E+000	2.40000E-001	7.00910E-004	7	...........	-327.63
	128	2.58	2.55062E-001	3.66352E-009	0.00000E+000	2.56000E-001	7.04243E-004	7	...........	-327.63
	136	2.74	2.70962E-001	3.87603E-009	0.00000E+000	2.72000E-001	7.06743E-004	7	...........	-327.63
	144	2.9	2.86889E-001	4.36771E-009	0.00000E+000	2.88000E-001	7.15910E-004	7	...........	-327.63
	152	3.06	3.02813E-001	4.65106E-009	0.00000E+000	3.04000E-001	7.15910E-004	7	...........	-327.63
	160	3.22	3.18703E-001	5.08441E-009	0.00000E+000	3.20000E-001	6.95076E-004	7	...........	-327.63
	168	3.38	3.34643E-001	5.67610E-009	0.00000E+000	3.36000E-001	7.08410E-004	7	...........	-327.63
	176	3.54	3.50599E-001	5.82610E-009	0.00000E+000	3.52000E-001	7.12576E-004	7	...........	-327.63
	184	3.7	3.66500E-001	6.05528E-009	0.00000E+000	3.68000E-001	6.98410E-004	7	...........	-327.63
	192	3.86	3.82439E-001	6.33029E-009	0.00000E+000	3.84000E-001	7.05076E-004	7	...........	-327.63
	200	4.02	3.98344E-001	6.51363E-009	0.00000E+000	4.00000E-001	7.02576E-004	7	...........	-327.63
	208	4.18	4.14258E-001	6.80531E-009	0.00000E+000	4.16000E-001	7.05910E-004	7	...........	-327.63
	216	4.34	4.30187E-001	7.09282E-009	0.00000E+000	4.32000E-001	7.07576E-004	7	...........	-327.63
	224	4.5	4.46112E-001	7.54700E-009	0.00000E+000	4.48000E-001	7.15076E-004	7	...........	-327.63
	232	4.66	4.61998E-001	7.89701E-009	0.00000E+000	4.64000E-001	7.14243E-004	7	...........	-327.63
	240	4.82	4.77930E-001	8.28869E-009	0.00000E+000	4.80000E-001	7.08410E-004	7	...........	-327.63
	248	4.98	4.93838E-001	8.55954E-009	0.00000E+000	4.96000E-001	6.89243E-004	7	...........	-327.63
	256	5.14	4.85788E-001	9.11372E-009	0.00000E+000	4.88000E-001	7.09243E-004	7	...........	-327.63
	264	5.3	4.69755E-001	9.30540E-009	0.00000E+000	4.72000E-001	7.05076E-004	7	...........	-327.63
	272	5.46	4.53728E-001	9.53874E-009	0.00000E+000	4.56000E-001	7.04243E-004	7	...........	-327.63
	280	5.62	4.37693E-001	9.65125E-009	0.00000E+000	4.40000E-001	6.93410E-004	7	...........	-327.63
	288	5.78	4.21670E-001	9.87625E-009	0.00000E+000	4.24000E-001	7.03410E-004	7	...........	-327.63
	296	5.94	4.05681E-001	1.03179E-008	0.00000E+000	4.08000E-001	7.23410E-004	7	...........	-327.63
	304	6.1	3.89666E-001	1.05221E-008	0.00000E+000	3.92000E-001	7.03410E-004	7	...........	-327.63
	312	6.26	3.73635E-001	1.07180E-008	0.00000E+000	3.76000E-001	7.17576E-004	7	...........	-327.63
	320	6.42	3.57648E-001	1.12096E-008	0.00000E+000	3.60000E-001	7.08410E-004	7	...........	-327.63
	328	6.58	3.41626E-001	1.13430E-008	0.00000E+000	3.44000E-001	6.95076E-004	7	...........	-327.63
	336	6.74	3.25624E-001	1.13555E-008	0.00000E+000	3.28000E-001	7.10076E-004	7	...........	-327.63
	344	6.9	3.09595E-001	1.17222E-008	0.00000E+000	3.12000E-001	6.77576E-004	7	...........	-327.63
	352	7.06	2.93585E-001	1.15680E-008	0.00000E+000	2.96000E-001	6.96743E-004	7	...........	-327.63
	360	7.22	2.77570E-001	1.20055E-008	0.00000E+000	2.80000E-001	7.09243E-004	7	...........	-327.63
	368	7.38	2.61549E-001	1.21930E-008	0.00000E+000	2.64000E-001	7.10910E-004	7	...........	-327.63
	376	7.54	2.45547E-001	1.24305E-008	0.00000E+000	2.48000E-001	7.03410E-004	7	...........	-327.63
	384	7.7	2.29550E-001	1.24013E-008	0.00000E+000	2.32000E-001	7.15910E-004	7	...........	-327.63
	392	7.86	2.13531E-001	1.27597E-008	0.00000E+000	2.16000E-001	7.10910E-004	7	...........	-327.63
	400	8.02	1.97538E-001	1.28222E-008	0.00000E+000	2.00000E-001	7.14243E-004	7	...........	-327.63
	408	8.18	1.81522E-001	1.32222E-008	0.00000E+000	1.84000E-001	7.05910E-004	7	...........	-327.63
	416	8.34	1.65528E-001	1.32472E-008	0.00000E+000	1.68000E-001	7.05076E-004	7	...........	-327.63
	424	8.5	1.49523E-001	1.34514E-008	0.00000E+000	1.52000E-001	7.01743E-004	7	...........	-327.63
	432	8.66	1.33528E-001	1.31597E-008	0.00000E+000	1.36000E-001	6.83410E-004	7	...........	-327.63
	440	8.82	1.17505E-001	1.34347E-008	0.00000E+000	1.20000E-001	6.96743E-004	7	...........	-327.63
	448	8.98	1.01533E-001	1.34431E-008	0.00000E+000	1.04000E-001	7.28410E-004	7	...........	-327.63
	456	9.14	8.55272E-002	1.38347E-008	0.00000E+000	8.80000E-002	6.98410E-004	7	...........	-327.63
	464	9.3	6.95113E-002	1.39722E-008	0.00000E+000	7.20000E-002	7.02576E-004	7	...........	-327.63
	472	9.46	5.34922E-002	1.42306E-008	0.00000E+000	5.60000E-002	7.02576E-004	7	...........	-327.63
	480	9.62	3.75051E-002	1.44056E-008	0.00000E+000	4.00000E-002	7.04243E-004	7	...........	-327.63
	488	9.78	2.15072E-002	1.45639E-008	0.00000E+000	2.40000E-002	6.99243E-004	7	...........	-327.63
	496	9.94	5.48759E-003	1.47306E-008	0.00000E+000	8.00000E-003	7.02576E-004	7	...........	-327.63
	504	10.1	-1.05482E-002	1.47181E-008	0.00000E+000	-8.00000E-003	7.05076E-004	7	...........	-327.63
	512	10.26	-2.65537E-002	1.47556E-008	0.00000E+000	-2.40000E-002	7.15076E-004	7	...........	-327.63
	520	10.42	-4.25612E-002	1.48514E-008	0.00000E+000	-4.00000E-002	7.06743E-004	7	...........	-327.63
	528	10.58	-5.85482E-002	1.48681E-008	0.00000E+000	-5.60000E-002	6.99243E-004	7	...........	-327.63
	536	10.74	-7.45395E-002	1.48181E-008	0.00000E+000	-7.20000E-002	6.98410E-004	7	...........	-327.63
	544	10.9	-9.05382E-002	1.48181E-008	0.00000E+000	-8.80000E-002	7.10910E-004	7	...........	-327.63
	552	11.06	-1.06510E-001	1.51723E-008	0.00000E+000	-1.04000E-001	7.01743E-004	7	...........	-327.63
	560	11.22	-1.22503E-001	1.53931E-008	0.00000E+000	-1.20000E-001	7.01743E-004	7	...........	-327.63
	568	11.38	-1.38495E-001	1.55765E-008	0.00000E+000	-1.36000E-001	7.05910E-004	7	...........	-327.63
	576	11.54	-1.54439E-001	1.57015E-008	0.00000E+000	-1.52000E-001	7.05076E-004	7	...........	-327.63
	584	11.7	-1.70448E-001	1.60181E-008	0.00000E+000	-1.68000E-001	7.11743E-004	7	...........	-327.63
	592	11.86	-1.86429E-001	1.58765E-008	0.00000E+000	-1.84000E-001	7.15910E-004	7	...........	-327.63
	600	12.02	-2.02422E-001	1.61015E-008	0.00000E+000	-2.00000E-001	7.10076E-004	7	...........	-327.63
	608	12.18	-2.18397E-001	1.60432E-008	0.00000E+000	-2.16000E-001	7.08410E-004	7	...........	-327.63
	616	12.34	-2.34376E-001	1.61223E-008	0.00000E+000	-2.32000E-001	7.25076E-004	7	...........	-327.63
	624	12.5	-2.50365E-001	1.62223E-008	0.00000E+000	-2.48000E-001	7.22576E-004	7	...........	-327.63
	632	12.66	-2.66360E-001	1.64098E-008	0.00000E+000	-2.64000E-001	7.10076E-004	7	...........	-327.63
	640	12.82	-2.82319E-001	1.66723E-008	0.00000E+000	-2.80000E-001	7.20910E-004	7	...........	-327.63
	648	12.98	-2.98329E-001	1.66098E-008	0.00000E+000	-2.96000E-001	6.95076E-004	7	...........	-327.63
	656	13.14	-3.14295E-001	1.66723E-008	0.00000E+000	-3.12000E-001	7.09243E-004	7	...........	-327.63
	664	13.3	-3.30282E-001	1.69724E-008	0.00000E+000	-3.28000E-001	7.15910E-004	7	...........	-327.63
	672	13.46	-3.46255E-001	1.70432E-008	0.00000E+000	-3.44000E-001	7.03410E-004	7	...........	-327.63
	680	13.62	-3.62218E-001	1.69599E-008	0.00000E+000	-3.60000E-001	7.10076E-004	7	...........	-327.63
	688	13.78	-3.78198E-001	1.68515E-008	0.00000E+000	-3.76000E-001	7.10076E-004	7	...........	-327.63
	696	13.94	-3.94175E-001	1.69724E-008	0.00000E+000	-3.92000E-001	7.09243E-004	7	...........	-327.63
	704	14.1	-4.10102E-001	1.67640E-008	0.00000E+000	-4.08000E-001	7.12576E-004	7	...........	-327.63
	712	14.26	-4.26088E-001	1.66973E-008	0.00000E+000	-4.24000E-001	6.95910E-004	7	...........	-327.63
	720	14.42	-4.42049E-001	1.65432E-008	0.00000E+000	-4.40000E-001	7.14243E-004	7	...........	-327.63
	728	14.58	-4.58015E-001	1.64265E-008	0.00000E+000	-4.56000E-001	6.89243E-004	7	...........	-327.63
	736	14.74	-4.73969E-001	1.63640E-008	0.00000E+000	-4.72000E-001	7.10076E-004	7	...........	-327.63
	744	14.9	-4.89929E-001	1.61973E-008	0.00000E+000	-4.88000E-001	7.06743E-004	7	...........	-327.63
	750	15.02	-5.01910E-001	1.62515E-008	0.00000E+000	-5.00000E-001	7.07576E-004	7	...........	-327.63
CURVE2	TABLE
	Pt	T	Vf	Im	Vu	Sig	Ach	IERange	Over	Temp
	#	s	V vs. Ref.	A	V	V	V	#	bits	deg C
	751	15.04	-4.99909E-001	1.60640E-008	0.00000E+000	-4.98000E-001	6.23410E-004	7	...........	-327.63
	761	15.24	-4.79923E-001	1.61557E-008	0.00000E+000	-4.78000E-001	6.29243E-004	7	...........	-327.63
	771	15.44	-4.59960E-001	1.59098E-008	0.00000E+000	-4.58000E-001	6.27576E-004	7	...........	-327.63
	781	15.64	-4.39945E-001	1.58765E-008	0.00000E+000	-4.38000E-001	6.25910E-004	7	...........	-327.63
	791	15.84	-4.19976E-001	1.58223E-008	0.00000E+000	-4.18000E-001	6.07576E-004	7	...........	-327.63
	801	16.04	-3.99984E-001	1.58598E-008	0.00000E+000	-3.98000E-001	6.23410E-004	7	...........	-327.63
	811	16.24	-3.80000E-001	1.57431E-008	0.00000E+000	-3.78000E-001	6.05910E-004	7	...........	-327.63
	821	16.44	-3.59989E-001	1.55681E-008	0.00000E+000	-3.58000E-001	6.20910E-004	7	...........	-327.63
	831	16.64	-3.40012E-001	1.54223E-008	0.00000E+000	-3.38000E-001	6.38410E-004	7	...........	-327.63
	841	16.84	-3.20019E-001	1.54556E-008	0.00000E+000	-3.18000E-001	6.15076E-004	7	...........	-327.63
	851	17.04	-3.00028E-001	1.54015E-008	0.00000E+000	-2.98000E-001	6.32576E-004	7	...........	-327.63
	861	17.24	-2.79990E-001	1.53473E-008	0.00000E+000	-2.78000E-001	6.30910E-004	7	...........	-327.63
	871	17.44	-2.59978E-001	1.53181E-008	0.00000E+000	-2.58000E-001	6.15910E-004	7	...........	-327.63
	881	17.64	-2.40010E-001	1.53390E-008	0.00000E+000	-2.38000E-001	6.15910E-004	7	...........	-327.63
	891	17.84	-2.20009E-001	1.52473E-008	0.00000E+000	-2.18000E-001	6.36743E-004	7	...........	-327.63
	901	18.04	-2.00022E-001	1.52806E-008	0.00000E+000	-1.98000E-001	6.14243E-004	7	...........	-327.63
	911	18.24	-1.80015E-001	1.51806E-008	0.00000E+000	-1.78000E-001	6.35076E-004	7	...........	-327.63
	921	18.44	-1.60016E-001	1.49431E-008	0.00000E+000	-1.58000E-001	6.00076E-004	7	...........	-327.63
	931	18.64	-1.40022E-001	1.46348E-008	0.00000E+000	-1.38000E-001	6.17576E-004	7	...........	-327.63
	941	18.84	-1.20017E-001	1.46348E-008	0.00000E+000	-1.18000E-001	6.24243E-004	7	...........	-327.63
	951	19.04	-1.00036E-001	1.45639E-008	0.00000E+000	-9.80000E-002	6.16743E-004	7	...........	-327.63
	961	19.24	-8.00320E-002	1.45181E-008	0.00000E+000	-7.80000E-002	6.19243E-004	7	...........	-327.63
	971	19.44	-6.00178E-002	1.43264E-008	0.00000E+000	-5.80000E-002	6.15910E-004	7	...........	-327.63
	981	19.64	-4.00132E-002	1.39847E-008	0.00000E+000	-3.80000E-002	6.30910E-004	7	...........	-327.63
	991	19.84	-2.00157E-002	1.38222E-008	0.00000E+000	-1.80000E-002	6.20910E-004	7	...........	-327.63
	1001	20.04	1.71733E-005	1.36139E-008	0.00000E+000	2.00000E-003	6.05910E-004	7	...........	-327.63
	1011	20.24	2.00605E-002	1.34889E-008	0.00000E+000	2.20000E-002	6.19243E-004	7	...........	-327.63
	1021	20.44	4.00480E-002	1.35181E-008	0.00000E+000	4.20000E-002	6.11743E-004	7	...........	-327.63
	1031	20.64	6.00726E-002	1.33305E-008	0.00000E+000	6.20000E-002	6.16743E-004	7	...........	-327.63
	1041	20.84	8.00913E-002	1.31555E-008	0.00000E+000	8.20000E-002	6.20076E-004	7	...........	-327.63
	1051	21.04	1.00123E-001	1.29472E-008	0.00000E+000	1.02000E-001	6.06743E-004	7	...........	-327.63
	1061	21.24	1.20133E-001	1.26472E-008	0.00000E+000	1.22000E-001	6.35910E-004	7	...........	-327.63
	1071	21.44	1.40151E-001	1.21555E-008	0.00000E+000	1.42000E-001	4.35910E-004	7	...........	-327.63
	1081	21.64	1.60179E-001	1.18222E-008	0.00000E+000	1.62000E-001	4.07576E-004	7	...........	-327.63
	1091	21.84	1.80206E-001	1.14305E-008	0.00000E+000	1.82000E-001	4.22576E-004	7	...........	-327.63
	1101	22.04	2.00271E-001	1.12555E-008	0.00000E+000	2.02000E-001	4.15076E-004	7	...........	-327.63
	1111	22.24	2.20296E-001	1.09888E-008	0.00000E+000	2.22000E-001	4.14243E-004	7	...........	-327.63
	1121	22.44	2.40357E-001	1.06554E-008	0.00000E+000	2.42000E-001	4.10076E-004	7	...........	-327.63
	1131	22.64	2.60372E-001	1.00263E-008	0.00000E+000	2.62000E-001	4.14243E-004	7	...........	-327.63
	1141	22.84	2.80430E-001	9.69291E-009	0.00000E+000	2.82000E-001	4.01743E-004	7	...........	-327.63
	1151	23.04	3.00467E-001	9.34707E-009	0.00000E+000	3.02000E-001	4.12576E-004	7	...........	-327.63
	1161	23.24	3.20466E-001	8.88872E-009	0.00000E+000	3.22000E-001	4.06743E-004	7	...........	-327.63
	1171	23.44	3.40527E-001	8.74288E-009	0.00000E+000	3.42000E-001	4.25076E-004	7	...........	-327.63
	1181	23.64	3.60559E-001	8.35536E-009	0.00000E+000	3.62000E-001	4.15076E-004	7	...........	-327.63
	1191	23.84	3.80605E-001	7.82201E-009	0.00000E+000	3.82000E-001	4.10910E-004	7	...........	-327.63
	1201	24.04	4.00661E-001	7.33032E-009	0.00000E+000	4.02000E-001	4.27576E-004	7	...........	-327.63
	1211	24.24	4.20689E-001	6.92198E-009	0.00000E+000	4.22000E-001	4.11743E-004	7	...........	-327.63
	1221	24.44	4.40765E-001	6.13445E-009	0.00000E+000	4.42000E-001	4.07576E-004	7	...........	-327.63
	1231	24.64	4.60828E-001	5.76777E-009	0.00000E+000	4.62000E-001	4.01743E-004	7	...........	-327.63
	1241	24.84	4.80901E-001	5.28442E-009	0.00000E+000	4.82000E-001	4.11743E-004	7	...........	-327.63
	1251	25.04	4.96955E-001	4.82190E-009	0.00000E+000	4.98000E-001	3.93410E-004	7	...........	-327.63
	1261	25.24	4.77078E-001	4.45105E-009	0.00000E+000	4.78000E-001	4.19243E-004	7	...........	-327.63
	1271	25.44	4.57222E-001	3.68852E-009	0.00000E+000	4.58000E-001	4.17576E-004	7	...........	-327.63
	1281	25.64	4.37358E-001	3.05933E-009	0.00000E+000	4.38000E-001	4.17576E-004	7	...........	-327.63
	1291	25.84	4.17500E-001	2.31764E-009	0.00000E+000	4.18000E-001	4.20910E-004	7	...........	-327.63
[...]
	2750	55.02	-5.01668E-001	1.56890E-008	0.00000E+000	-5.00000E-001	4.16743E-004	7	...........	-327.63
CURVE4	TABLE
	Pt	T	Vf	Im	Vu	Sig	Ach	IERange	Over	Temp
	#	s	V vs. Ref.	A	V	V	V	#	bits	deg C
	2751	55.04	-4.99677E-001	1.57556E-008	0.00000E+000	-4.98000E-001	4.36743E-004	7	...........	-327.63
	2754	55.1	-4.93683E-001	1.57306E-008	0.00000E+000	-4.92000E-001	4.20910E-004	7	...........	-327.63
	2757	55.16	-4.87688E-001	1.57223E-008	0.00000E+000	-4.86000E-001	4.20910E-004	7	...........	-327.63
	2760	55.22	-4.81693E-001	1.57181E-008	0.00000E+000	-4.80000E-001	3.96743E-004	7	...........	-327.63
	2763	55.28	-4.75690E-001	1.56723E-008	0.00000E+000	-4.74000E-001	4.37576E-004	7	...........	-327.63
	2766	55.34	-4.69727E-001	1.56056E-008	0.00000E+000	-4.68000E-001	4.09243E-004	7	...........	-327.63
	2769	55.4	-4.63699E-001	1.57098E-008	0.00000E+000	-4.62000E-001	4.34243E-004	7	...........	-327.63
	2772	55.46	-4.57711E-001	1.58181E-008	0.00000E+000	-4.56000E-001	4.23410E-004	7	...........	-327.63
	2775	55.52	-4.51724E-001	1.57598E-008	0.00000E+000	-4.50000E-001	4.30910E-004	7	...........	-327.63
	2778	55.58	-4.45745E-001	1.59098E-008	0.00000E+000	-4.44000E-001	4.10910E-004	7	...........	-327.63
	2781	55.64	-4.39732E-001	1.59223E-008	0.00000E+000	-4.38000E-001	4.26743E-004	7	...........	-327.63
	2784	55.7	-4.33742E-001	1.59140E-008	0.00000E+000	-4.32000E-001	4.13410E-004	7	...........	-327.63
	2787	55.76	-4.27744E-001	1.59431E-008	0.00000E+000	-4.26000E-001	4.27576E-004	7	...........	-327.63
	2790	55.82	-4.21764E-001	1.58598E-008	0.00000E+000	-4.20000E-001	4.01743E-004	7	...........	-327.63
	2793	55.88	-4.15761E-001	1.59473E-008	0.00000E+000	-4.14000E-001	4.45910E-004	7	...........	-327.63
	2796	55.94	-4.09777E-001	1.59390E-008	0.00000E+000	-4.08000E-001	4.18410E-004	7	...........	-327.63
	2799	56	-4.03796E-001	1.58015E-008	0.00000E+000	-4.02000E-001	4.29243E-004	7	...........	-327.63
	2802	56.06	-3.97808E-001	1.59640E-008	0.00000E+000	-3.96000E-001	4.17576E-004	7	...........	-327.63
	2805	56.12	-3.91781E-001	1.60640E-008	0.00000E+000	-3.90000E-001	4.20076E-004	7	...........	-327.63
	2808	56.18	-3.85800E-001	1.58890E-008	0.00000E+000	-3.84000E-001	4.25910E-004	7	...........	-327.63
	2811	56.24	-3.79814E-001	1.60765E-008	0.00000E+000	-3.78000E-001	4.33410E-004	7	...........	-327.63
	2814	56.3	-3.73814E-001	1.59306E-008	0.00000E+000	-3.72000E-001	4.30910E-004	7	...........	-327.63
	2817	56.36	-3.67827E-001	1.58765E-008	0.00000E+000	-3.66000E-001	4.20076E-004	7	...........	-327.63
	2820	56.42	-3.61835E-001	1.60556E-008	0.00000E+000	-3.60000E-001	4.16743E-004	7	...........	-327.63
	2823	56.48	-3.55838E-001	1.61598E-008	0.00000E+000	-3.54000E-001	4.35910E-004	7	...........	-327.63
	2826	56.54	-3.49837E-001	1.61723E-008	0.00000E+000	-3.48000E-001	4.15910E-004	7	...........	-327.63
	2829	56.6	-3.43852E-001	1.59056E-008	0.00000E+000	-3.42000E-001	4.25910E-004	7	...........	-327.63
	2832	56.66	-3.37859E-001	1.57015E-008	0.00000E+000	-3.36000E-001	4.35076E-004	7	...........	-327.63
	2835	56.72	-3.31863E-001	1.58556E-008	0.00000E+000	-3.30000E-001	4.43410E-004	7	...........	-327.63
	2838	56.78	-3.25865E-001	1.59431E-008	0.00000E+000	-3.24000E-001	4.28410E-004	7	...........	-327.63
	2841	56.84	-3.19889E-001	1.59306E-008	0.00000E+000	-3.18000E-001	4.36743E-004	7	...........	-327.63
	2844	56.9	-3.13893E-001	1.59056E-008	0.00000E+000	-3.12000E-001	4.18410E-004	7	...........	-327.63
	2847	56.96	-3.07877E-001	1.57265E-008	0.00000E+000	-3.06000E-001	4.24243E-004	7	...........	-327.63
	2850	57.02	-3.01912E-001	1.58140E-008	0.00000E+000	-3.00000E-001	4.28410E-004	7	...........	-327.63
	2853	57.08	-2.95919E-001	1.57848E-008	0.00000E+000	-2.94000E-001	4.19243E-004	7	...........	-327.63
	2856	57.14	-2.89907E-001	1.59098E-008	0.00000E+000	-2.88000E-001	4.33410E-004	7	...........	-327.63
	2859	57.2	-2.83912E-001	1.57181E-008	0.00000E+000	-2.82000E-001	4.05910E-004	7	...........	-327.63
	2862	57.26	-2.77930E-001	1.59181E-008	0.00000E+000	-2.76000E-001	4.35910E-004	7	...........	-327.63
	2865	57.32	-2.71928E-001	1.57931E-008	0.00000E+000	-2.70000E-001	4.15076E-004	7	...........	-327.63
	2868	57.38	-2.65943E-001	1.57223E-008	0.00000E+000	-2.64000E-001	4.34243E-004	7	...........	-327.63
	2871	57.44	-2.59936E-001	1.57598E-008	0.00000E+000	-2.58000E-001	4.22576E-004	7	...........	-327.63
	2874	57.5	-2.53973E-001	1.56640E-008	0.00000E+000	-2.52000E-001	4.23410E-004	7	...........	-327.63
	2877	57.56	-2.47947E-001	1.56306E-008	0.00000E+000	-2.46000E-001	4.01743E-004	7	...........	-327.63
	2880	57.62	-2.41971E-001	1.53931E-008	0.00000E+000	-2.40000E-001	4.23410E-004	7	...........	-327.63
	2883	57.68	-2.35970E-001	1.57098E-008	0.00000E+000	-2.34000E-001	4.00910E-004	7	...........	-327.63
	2886	57.74	-2.29977E-001	1.56056E-008	0.00000E+000	-2.28000E-001	4.25076E-004	7	...........	-327.63
	2889	57.8	-2.23988E-001	1.55223E-008	0.00000E+000	-2.22000E-001	4.11743E-004	7	...........	-327.63
	2892	57.86	-2.17990E-001	1.54806E-008	0.00000E+000	-2.16000E-001	4.32576E-004	7	...........	-327.63
	2895	57.92	-2.11982E-001	1.55056E-008	0.00000E+000	-2.10000E-001	4.10076E-004	7	...........	-327.63
	2898	57.98	-2.05983E-001	1.55890E-008	0.00000E+000	-2.04000E-001	4.23410E-004	7	...........	-327.63
	2901	58.04	-2.00016E-001	1.53765E-008	0.00000E+000	-1.98000E-001	4.12576E-004	7	...........	-327.63
	2904	58.1	-1.94019E-001	1.53390E-008	0.00000E+000	-1.92000E-001	4.23410E-004	7	...........	-327.63
	2907	58.16	-1.88023E-001	1.54140E-008	0.00000E+000	-1.86000E-001	4.16743E-004	7	...........	-327.63
	2910	58.22	-1.82012E-001	1.54306E-008	0.00000E+000	-1.80000E-001	4.32576E-004	7	...........	-327.63
	2913	58.28	-1.76019E-001	1.54556E-008	0.00000E+000	-1.74000E-001	4.09243E-004	7	...........	-327.63
	2916	58.34	-1.70027E-001	1.54556E-008	0.00000E+000	-1.68000E-001	4.30910E-004	7	...........	-327.63
	2919	58.4	-1.64057E-001	1.54098E-008	0.00000E+000	-1.62000E-001	4.28410E-004	7	...........	-327.63
	2922	58.46	-1.58034E-001	1.51056E-008	0.00000E+000	-1.56000E-001	4.41743E-004	7	...........	-327.63
	2925	58.52	-1.52057E-001	1.50639E-008	0.00000E+000	-1.50000E-001	4.26743E-004	7	...........	-327.63
	2928	58.58	-1.46059E-001	1.51514E-008	0.00000E+000	-1.44000E-001	4.40076E-004	7	...........	-327.63
	2931	58.64	-1.40073E-001	1.50556E-008	0.00000E+000	-1.38000E-001	4.22576E-004	7	...........	-327.63
	2934	58.7	-1.34061E-001	1.49681E-008	0.00000E+000	-1.32000E-001	4.28410E-004	7	...........	-327.63
	2937	58.76	-1.28080E-001	1.52515E-008	0.00000E+000	-1.26000E-001	4.09243E-004	7	...........	-327.63
	2940	58.82	-1.22092E-001	1.50264E-008	0.00000E+000	-1.20000E-001	4.25076E-004	7	...........	-327.63
	2943	58.88	-1.16089E-001	1.50264E-008	0.00000E+000	-1.14000E-001	4.24243E-004	7	...........	-327.63
	2946	58.94	-1.10097E-001	1.50473E-008	0.00000E+000	-1.08000E-001	4.29243E-004	7	...........	-327.63
	2949	59	-1.04089E-001	1.50098E-008	0.00000E+000	-1.02000E-001	4.09243E-004	7	...........	-327.63
	2952	59.06	-9.81128E-002	1.49806E-008	0.00000E+000	-9.60000E-002	4.32576E-004	7	...........	-327.63
	2955	59.12	-9.21220E-002	1.49014E-008	0.00000E+000	-9.00000E-002	4.01743E-004	7	...........	-327.63
	2958	59.18	-8.61337E-002	1.49598E-008	0.00000E+000	-8.40000E-002	4.35076E-004	7	...........	-327.63
	2961	59.24	-8.01166E-002	1.48889E-008	0.00000E+000	-7.80000E-002	4.00910E-004	7	...........	-327.63
	2964	59.3	-7.41491E-002	1.49014E-008	0.00000E+000	-7.20000E-002	4.37576E-004	7	...........	-327.63
	2967	59.36	-6.81370E-002	1.47598E-008	0.00000E+000	-6.60000E-002	4.24243E-004	7	...........	-327.63
	2970	59.42	-6.21632E-002	1.50098E-008	0.00000E+000	-6.00000E-002	4.15076E-004	7	...........	-327.63
	2973	59.48	-5.61520E-002	1.48681E-008	0.00000E+000	-5.40000E-002	4.11743E-004	7	...........	-327.63
	2976	59.54	-5.01774E-002	1.49223E-008	0.00000E+000	-4.80000E-002	4.34243E-004	7	...........	-327.63
	2979	59.6	-4.41637E-002	1.47973E-008	0.00000E+000	-4.20000E-002	4.20076E-004	7	...........	-327.63
	2982	59.66	-3.81816E-002	1.48806E-008	0.00000E+000	-3.60000E-002	4.34243E-004	7	...........	-327.63
	2985	59.72	-3.21778E-002	1.50223E-008	0.00000E+000	-3.00000E-002	4.30076E-004	7	...........	-327.63
	2988	59.78	-2.61862E-002	1.48764E-008	0.00000E+000	-2.40000E-002	4.25076E-004	7	...........	-327.63
	2991	59.84	-2.01966E-002	1.48556E-008	0.00000E+000	-1.80000E-002	4.25076E-004	7	...........	-327.63
	2994	59.9	-1.41970E-002	1.48681E-008	0.00000E+000	-1.20000E-002	4.16743E-004	7	...........	-327.63
	2997	59.96	-8.20824E-003	1.48098E-008	0.00000E+000	-6.00000E-003	4.26743E-004	7	...........	-327.63
	3000	60.02	-2.21908E-003	1.49973E-008	0.00000E+000	0.00000E+000	4.20076E-004	7	...........	-327.63