File: Gamry/CV_fullWindow_noBuffer_2.DTA
EXPLAIN
TAG	CV
TITLE	LABEL	Cyclic Voltammetry	Test &Identifier
DATE	LABEL	5-12-2022	Date
TIME	LABEL	13:22:38	Time
NOTES	NOTES	1	&Notes...

PSTAT	PSTAT	REF3000-20110	Potentiostat
VINIT	POTEN	0.00000E+000	F	Initial &E (V)
VLIMIT1	POTEN	5.00000E-001	F	Scan Limit &1 (V)
VLIMIT2	POTEN	-5.00000E-001	F	Scan Limit &2 (V)
VFINAL	POTEN	0.00000E+000	F	Final &E (V)
SCANRATE	QUANT	9.99998E+001	&Scan Rate (mV/s)
STEPSIZE	QUANT	2.00000E+000	St&ep Size (mV)
CYCLES	IQUANT	3	C&ycles (#)
IMODE	SELECTOR	0	I/E Range &Mode
IRANGE	QUANT	3.00000E-001	&Max Current (mA)
AREA	QUANT	1.00000E+000	Electrode &Area (cm^2)
ELECTRODETYPE	SELECTOR	0	Electrode Type
STRIPPING	TOGGLE	F	Used for Stripping
CONDIT	TWOPARAM	F	1.50000E+001	0.00000E+000	Conditionin&g	Time(s)	E(V)
DELAY	TWOPARAM	F	3.00000E+001	0.00000E+000	Init. De&lay	Time(s)	Stab.(mV/s)
EQDELAY	QUANT	0.00000E+000	Equil. &Time (s)
IRCOMP	SELECTOR	0	IRCom&p
PFCOR	QUANT	5.00000E+001	PF Corr. (ohm)
SAMPLINGMODE	SELECTOR	1	Sampling &Mode
EOC	QUANT	0	Open Circuit (V)
PSTATMODEL	IQUANT	5	Pstat Model
PSTATSECTION	LABEL	REF3000-20110	Pstat Section
PSTATSERIALNO	LABEL	20110	Pstat Serial Number
CTRLMODE	IQUANT	1	Control Mode
ELECTROMETER	IQUANT	0	RE=0 or CS=1
IESTAB	IQUANT	2	I/E Stability
CASPEED	IQUANT	4	Control Amp Speed
CONVENTION	IQUANT	1	Current Convention
ICHRANGE	IQUANT	2	Ich Range
ICHRANGEMODE	TOGGLE	F	Ich Auto Range
ICHOFFSETENABLE	TOGGLE	F	Ich Offset Enable
ICHOFFSET	QUANT	0	Ich Offset (V)
ICHFILTER	IQUANT	2	Ich Filter
VCHRANGE	IQUANT	2	Vch Range
VCHRANGEMODE	TOGGLE	F	Vch Auto Range
VCHOFFSETENABLE	TOGGLE	F	Vch Offset Enable
VCHOFFSET	QUANT	0	Vch Offset (V)
VCHFILTER	IQUANT	2	Vch Filter
ACHRANGE	IQUANT	2	Ach Range
ACHOFFSETENABLE	TOGGLE	F	Ach Offset Enable
ACHOFFSET	QUANT	0	Ach Offset (V)
ACHFILTER	IQUANT	1	Ach Filter
IERANGELOWERLIMIT	IQUANT	2	I/E Range Lower Limit
IERANGEMODE	TOGGLE	T	I/E AutoRange
IERANGE	IQUANT	9	I/E Range
POSFEEDENABLE	TOGGLE	F	Positive Feedback IR Comp
POSFEEDRESISTANCE	QUANT	0	Positive Feedback Resistance (ohm)
ACHSELECT	IQUANT	4	Ach Select
SENSECABLEID	IQUANT	14	Sense Cable ID
PWRCABLEID	IQUANT	7	Power Cable ID
DCCALDATE	LABEL	8/9/2022	DC Calibration Date
ACCALDATE	LABEL	8/9/2022	AC Calibration Date
THERMOSELECT	IQUANT	1	Thermo Select
FRAMEWORKVERSION	LABEL	7.9.0	Framework Version
INSTRUMENTVERSION	LABEL	4.60	Instrument Version
COMPLIANCEVOLTAGE	IQUANT	0	Compliance Voltage
CURVE1	TABLE
	Pt	T	Vf	Im	Vu	Sig	Ach	IERange	Over	Temp
	#	s	V vs. Ref.	A	V	V	V	#	bits	deg C
	0	0.02	5.17140E-003	-5.76767E-008	0.00000E+000	0.00000E+000	7.38410E-004	9	...........	-327.63
	8	0.18	2.13680E-002	-3.20757E-009	0.00000E+000	1.60000E-002	7.44243E-004	7	...........	-327.63
	16	0.34	3.73876E-002	-3.44508E-009	0.00000E+000	3.20000E-002	7.55076E-004	7	...........	-327.63
	24	0.5	5.33734E-002	-3.26174E-009	0.00000E+000	4.80000E-002	7.26743E-004	7	...........	-327.63
	32	0.66	6.86493E-002	-2.84922E-009	0.00000E+000	6.40000E-002	7.25910E-004	7	...........	-327.63
	40	0.82	8.44680E-002	-3.21173E-009	0.00000E+000	8.00000E-002	7.27576E-004	7	...........	-327.63
	48	0.98	1.01424E-001	-3.39924E-009	0.00000E+000	9.60000E-002	7.38410E-004	7	...........	-327.63
	56	1.14	1.17433E-001	-3.74509E-009	0.00000E+000	1.12000E-001	7.29243E-004	7	...........	-327.63
	64	1.3	1.33435E-001	-3.84092E-009	0.00000E+000	1.28000E-001	7.45910E-004	7	...........	-327.63
	72	1.46	1.49458E-001	-4.29511E-009	0.00000E+000	1.44000E-001	7.35910E-004	7	...........	-327.63
	80	1.62	1.65455E-001	-4.61179E-009	0.00000E+000	1.60000E-001	7.33410E-004	7	...........	-327.63
	88	1.78	1.81475E-001	-4.41595E-009	0.00000E+000	1.76000E-001	7.25910E-004	7	...........	-327.63
	96	1.94	1.97467E-001	-4.74096E-009	0.00000E+000	1.92000E-001	7.35910E-004	7	...........	-327.63
	104	2.1	2.13513E-001	-4.82429E-009	0.00000E+000	2.08000E-001	7.29243E-004	7	...........	-327.63
	112	2.26	2.29538E-001	-5.10764E-009	0.00000E+000	2.24000E-001	7.15076E-004	7	...........	-327.63
	120	2.42	2.45554E-001	-5.38265E-009	0.00000E+000	2.40000E-001	7.38410E-004	7	...........	-327.63
	128	2.58	2.61559E-001	-5.58266E-009	0.00000E+000	2.56000E-001	7.31743E-004	7	...........	-327.63
	136	2.74	2.77548E-001	-5.92434E-009	0.00000E+000	2.72000E-001	7.26743E-004	7	...........	-327.63
	144	2.9	2.93532E-001	-6.38269E-009	0.00000E+000	2.88000E-001	7.34243E-004	7	...........	-327.63
	152	3.06	3.09601E-001	-6.66186E-009	0.00000E+000	3.04000E-001	7.17576E-004	7	...........	-327.63
	160	3.22	3.25618E-001	-6.93271E-009	0.00000E+000	3.20000E-001	7.40910E-004	7	...........	-327.63
	168	3.38	3.41677E-001	-7.21188E-009	0.00000E+000	3.36000E-001	7.30910E-004	7	...........	-327.63
	176	3.54	3.57630E-001	-7.50773E-009	0.00000E+000	3.52000E-001	7.40076E-004	7	...........	-327.63
	184	3.7	3.73618E-001	-7.37439E-009	0.00000E+000	3.68000E-001	7.35910E-004	7	...........	-327.63
	192	3.86	3.89483E-001	-7.65773E-009	0.00000E+000	3.84000E-001	7.37576E-004	7	...........	-327.63
	200	4.02	4.05448E-001	-7.54940E-009	0.00000E+000	4.00000E-001	7.36743E-004	7	...........	-327.63
	208	4.18	4.21527E-001	-7.85774E-009	0.00000E+000	4.16000E-001	7.48410E-004	7	...........	-327.63
	216	4.34	4.37436E-001	-7.86191E-009	0.00000E+000	4.32000E-001	7.20076E-004	7	...........	-327.63
	224	4.5	4.53334E-001	-8.02441E-009	0.00000E+000	4.48000E-001	7.48410E-004	7	...........	-327.63
	232	4.66	4.69246E-001	-7.94941E-009	0.00000E+000	4.64000E-001	7.36743E-004	7	...........	-327.63
	240	4.82	4.85143E-001	-7.87441E-009	0.00000E+000	4.80000E-001	7.30910E-004	7	...........	-327.63
	248	4.98	5.00840E-001	-8.18692E-009	0.00000E+000	4.96000E-001	7.39243E-004	7	...........	-327.63
	256	5.14	4.93008E-001	-7.95358E-009	0.00000E+000	4.88000E-001	7.39243E-004	7	...........	-327.63
	264	5.3	4.76961E-001	-8.03691E-009	0.00000E+000	4.72000E-001	7.49243E-004	7	...........	-327.63
	272	5.46	4.60675E-001	-8.41610E-009	0.00000E+000	4.56000E-001	7.40910E-004	7	...........	-327.63
	280	5.62	4.45286E-001	-8.44110E-009	0.00000E+000	4.40000E-001	7.33410E-004	7	...........	-327.63
	288	5.78	4.29006E-001	-8.29526E-009	0.00000E+000	4.24000E-001	7.23410E-004	7	...........	-327.63
	296	5.94	4.12526E-001	-8.60360E-009	0.00000E+000	4.08000E-001	7.35076E-004	7	...........	-327.63
	304	6.1	3.96628E-001	-8.72027E-009	0.00000E+000	3.92000E-001	7.30076E-004	7	...........	-327.63
	312	6.26	3.80500E-001	-8.69527E-009	0.00000E+000	3.76000E-001	7.26743E-004	7	...........	-327.63
	320	6.42	3.64423E-001	-8.67027E-009	0.00000E+000	3.60000E-001	7.24243E-004	7	...........	-327.63
	328	6.58	3.48425E-001	-8.64110E-009	0.00000E+000	3.44000E-001	7.30910E-004	7	...........	-327.63
	336	6.74	3.32524E-001	-8.76194E-009	0.00000E+000	3.28000E-001	7.43410E-004	7	...........	-327.63
	344	6.9	3.16393E-001	-8.91195E-009	0.00000E+000	3.12000E-001	7.32576E-004	7	...........	-327.63
	352	7.06	3.00216E-001	-8.99112E-009	0.00000E+000	2.96000E-001	7.47576E-004	7	...........	-327.63
	360	7.22	2.84120E-001	-9.17862E-009	0.00000E+000	2.80000E-001	7.28410E-004	7	...........	-327.63
	368	7.38	2.68329E-001	-9.24946E-009	0.00000E+000	2.64000E-001	7.41743E-004	7	...........	-327.63
	376	7.54	2.52343E-001	-9.27029E-009	0.00000E+000	2.48000E-001	7.19243E-004	7	...........	-327.63
	384	7.7	2.36290E-001	-9.49530E-009	0.00000E+000	2.32000E-001	7.40076E-004	7	...........	-327.63
	392	7.86	2.20226E-001	-9.24946E-009	0.00000E+000	2.16000E-001	7.37576E-004	7	...........	-327.63
	400	8.02	2.04179E-001	-9.37446E-009	0.00000E+000	2.00000E-001	7.24243E-004	7	...........	-327.63
	408	8.18	1.88209E-001	-8.98695E-009	0.00000E+000	1.84000E-001	7.29243E-004	7	...........	-327.63
	416	8.34	1.72172E-001	-9.15362E-009	0.00000E+000	1.68000E-001	7.41743E-004	7	...........	-327.63
	424	8.5	1.56069E-001	-9.02445E-009	0.00000E+000	1.52000E-001	7.30076E-004	7	...........	-327.63
	432	8.66	1.40009E-001	-9.18279E-009	0.00000E+000	1.36000E-001	7.26743E-004	7	...........	-327.63
	440	8.82	1.24005E-001	-9.24946E-009	0.00000E+000	1.20000E-001	7.31743E-004	7	...........	-327.63
	448	8.98	1.07931E-001	-9.07445E-009	0.00000E+000	1.04000E-001	7.23410E-004	7	...........	-327.63
	456	9.14	9.19468E-002	-8.96612E-009	0.00000E+000	8.80000E-002	7.21743E-004	7	...........	-327.63
	464	9.3	7.58438E-002	-8.99945E-009	0.00000E+000	7.20000E-002	7.35910E-004	7	...........	-327.63
	472	9.46	5.98030E-002	-8.92445E-009	0.00000E+000	5.60000E-002	7.24243E-004	7	...........	-327.63
	480	9.62	4.38476E-002	-8.94528E-009	0.00000E+000	4.00000E-002	7.28410E-004	7	...........	-327.63
	488	9.78	2.77268E-002	-8.83278E-009	0.00000E+000	2.40000E-002	7.10076E-004	7	...........	-327.63
	496	9.94	1.16751E-002	-9.12862E-009	0.00000E+000	8.00000E-003	7.32576E-004	7	...........	-327.63
	504	10.1	-4.17658E-003	-9.00778E-009	0.00000E+000	-8.00000E-003	7.45910E-004	7	...........	-327.63
	512	10.26	-2.03537E-002	-8.72027E-009	0.00000E+000	-2.40000E-002	7.34243E-004	7	...........	-327.63
	520	10.42	-3.63407E-002	-8.69527E-009	0.00000E+000	-4.00000E-002	7.40910E-004	7	...........	-327.63
	528	10.58	-5.23274E-002	-8.44110E-009	0.00000E+000	-5.60000E-002	7.31743E-004	7	...........	-327.63
	536	10.74	-6.84832E-002	-8.59110E-009	0.00000E+000	-7.20000E-002	7.27576E-004	7	...........	-327.63
	544	10.9	-8.45078E-002	-8.51610E-009	0.00000E+000	-8.80000E-002	7.40076E-004	7	...........	-327.63
	552	11.06	-1.00565E-001	-8.23275E-009	0.00000E+000	-1.04000E-001	7.45076E-004	7	...........	-327.63
	560	11.22	-1.16612E-001	-8.36609E-009	0.00000E+000	-1.20000E-001	7.36743E-004	7	...........	-327.63
	568	11.38	-1.32636E-001	-8.40776E-009	0.00000E+000	-1.36000E-001	7.58410E-004	7	...........	-327.63
	576	11.54	-1.48727E-001	-8.15775E-009	0.00000E+000	-1.52000E-001	7.42576E-004	7	...........	-327.63
	584	11.7	-1.64746E-001	-8.16609E-009	0.00000E+000	-1.68000E-001	7.55910E-004	7	...........	-327.63
	592	11.86	-1.80804E-001	-7.96608E-009	0.00000E+000	-1.84000E-001	7.36743E-004	7	...........	-327.63
	600	12.02	-1.96833E-001	-7.99108E-009	0.00000E+000	-2.00000E-001	7.30076E-004	7	...........	-327.63
	608	12.18	-2.12893E-001	-7.56190E-009	0.00000E+000	-2.16000E-001	7.34243E-004	7	...........	-327.63
	616	12.34	-2.28949E-001	-7.42023E-009	0.00000E+000	-2.32000E-001	7.44243E-004	7	...........	-327.63
	624	12.5	-2.44992E-001	-7.13271E-009	0.00000E+000	-2.48000E-001	7.47576E-004	7	...........	-327.63
	632	12.66	-2.61055E-001	-6.73270E-009	0.00000E+000	-2.64000E-001	7.35076E-004	7	...........	-327.63
	640	12.82	-2.77119E-001	-6.68686E-009	0.00000E+000	-2.80000E-001	7.25076E-004	7	...........	-327.63
	648	12.98	-2.93205E-001	-6.57436E-009	0.00000E+000	-2.96000E-001	7.36743E-004	7	...........	-327.63
	656	13.14	-3.09190E-001	-6.14518E-009	0.00000E+000	-3.12000E-001	7.45076E-004	7	...........	-327.63
	664	13.3	-3.25282E-001	-5.70349E-009	0.00000E+000	-3.28000E-001	7.23410E-004	7	...........	-327.63
	672	13.46	-3.41382E-001	-5.53682E-009	0.00000E+000	-3.44000E-001	7.30076E-004	7	...........	-327.63
	680	13.62	-3.57472E-001	-5.42432E-009	0.00000E+000	-3.60000E-001	7.35910E-004	7	...........	-327.63
	688	13.78	-3.73485E-001	-4.89513E-009	0.00000E+000	-3.76000E-001	7.34243E-004	7	...........	-327.63
	696	13.94	-3.89566E-001	-4.65345E-009	0.00000E+000	-3.92000E-001	7.53410E-004	7	...........	-327.63
	704	14.1	-4.05668E-001	-4.32428E-009	0.00000E+000	-4.08000E-001	7.36743E-004	7	...........	-327.63
	712	14.26	-4.21732E-001	-3.96593E-009	0.00000E+000	-4.24000E-001	7.38410E-004	7	...........	-327.63
	720	14.42	-4.37797E-001	-3.70342E-009	0.00000E+000	-4.40000E-001	7.43410E-004	7	...........	-327.63
	728	14.58	-4.53899E-001	-3.45341E-009	0.00000E+000	-4.56000E-001	7.37576E-004	7	...........	-327.63
	736	14.74	-4.69999E-001	-2.99089E-009	0.00000E+000	-4.72000E-001	7.48410E-004	7	...........	-327.63
	744	14.9	-4.86100E-001	-2.37837E-009	0.00000E+000	-4.88000E-001	7.25910E-004	7	...........	-327.63
	750	15.02	-4.98187E-001	-2.12003E-009	0.00000E+000	-5.00000E-001	7.38410E-004	7	...........	-327.63
CURVE2	TABLE
	Pt	T	Vf	Im	Vu	Sig	Ach	IERange	Over	Temp
	#	s	V vs. Ref.	A	V	V	V	#	bits	deg C
	751	15.04	-4.96198E-001	-1.94502E-009	0.00000E+000	-4.98000E-001	6.61743E-004	7	...........	-327.63
	761	15.24	-4.76383E-001	-1.35333E-009	0.00000E+000	-4.78000E-001	6.50076E-004	7	...........	-327.63
	771	15.44	-4.56545E-001	-1.12416E-009	0.00000E+000	-4.58000E-001	6.62576E-004	7	...........	-327.63
	781	15.64	-4.36733E-001	-4.53299E-010	0.00000E+000	-4.38000E-001	6.65076E-004	7	...........	-327.63
	791	15.84	-4.16897E-001	-1.49121E-010	0.00000E+000	-4.18000E-001	6.53410E-004	7	...........	-327.63
	801	16.04	-3.97068E-001	5.55072E-010	0.00000E+000	-3.98000E-001	6.69243E-004	7	...........	-327.63
	811	16.24	-3.77230E-001	1.01342E-009	0.00000E+000	-3.78000E-001	6.59243E-004	7	...........	-327.63
	821	16.44	-3.57403E-001	1.41344E-009	0.00000E+000	-3.58000E-001	6.52576E-004	7	...........	-327.63
	831	16.64	-3.37569E-001	1.98846E-009	0.00000E+000	-3.38000E-001	6.63410E-004	7	...........	-327.63
	841	16.84	-3.17756E-001	2.63432E-009	0.00000E+000	-3.18000E-001	6.63410E-004	7	...........	-327.63
	851	17.04	-2.97995E-001	3.26767E-009	0.00000E+000	-2.98000E-001	6.54243E-004	7	...........	-327.63
	861	17.24	-2.78193E-001	4.09687E-009	0.00000E+000	-2.78000E-001	6.61743E-004	7	...........	-327.63
	871	17.44	-2.58444E-001	4.95107E-009	0.00000E+000	-2.58000E-001	6.48410E-004	7	...........	-327.63
	881	17.64	-2.38648E-001	5.56776E-009	0.00000E+000	-2.38000E-001	6.63410E-004	7	...........	-327.63
	891	17.84	-2.18936E-001	6.03861E-009	0.00000E+000	-2.18000E-001	6.48410E-004	7	...........	-327.63
	901	18.04	-1.99187E-001	7.00948E-009	0.00000E+000	-1.98000E-001	6.57576E-004	7	...........	-327.63
	911	18.24	-1.78277E-001	7.67200E-009	0.00000E+000	-1.78000E-001	6.50910E-004	7	...........	-327.63
	921	18.44	-1.58590E-001	8.78455E-009	0.00000E+000	-1.58000E-001	6.50910E-004	7	...........	-327.63
	931	18.64	-1.40025E-001	1.00304E-008	0.00000E+000	-1.38000E-001	6.55076E-004	7	...........	-327.63
	941	18.84	-1.20323E-001	1.10555E-008	0.00000E+000	-1.18000E-001	6.43410E-004	7	...........	-327.63
	951	19.04	-1.00613E-001	1.18472E-008	0.00000E+000	-9.80000E-002	6.40910E-004	7	...........	-327.63
	961	19.24	-8.08299E-002	1.24972E-008	0.00000E+000	-7.80000E-002	6.59243E-004	7	...........	-327.63
	971	19.44	-6.10457E-002	1.30805E-008	0.00000E+000	-5.80000E-002	6.58410E-004	7	...........	-327.63
	981	19.64	-4.10845E-002	1.39514E-008	0.00000E+000	-3.80000E-002	6.48410E-004	7	...........	-327.63
	991	19.84	-2.07528E-002	1.47056E-008	0.00000E+000	-1.80000E-002	6.44243E-004	7	...........	-327.63
	1001	20.04	-1.71908E-003	1.56306E-008	0.00000E+000	2.00000E-003	6.57576E-004	7	...........	-327.63
	1011	20.24	1.81026E-002	1.63473E-008	0.00000E+000	2.20000E-002	6.57576E-004	7	...........	-327.63
	1021	20.44	3.78988E-002	1.70474E-008	0.00000E+000	4.20000E-002	6.47576E-004	7	...........	-327.63
	1031	20.64	5.77018E-002	1.78265E-008	0.00000E+000	6.20000E-002	6.54243E-004	7	...........	-327.63
	1041	20.84	7.75105E-002	1.84016E-008	0.00000E+000	8.20000E-002	6.52576E-004	7	...........	-327.63
	1051	21.04	9.73213E-002	1.92849E-008	0.00000E+000	1.02000E-001	6.45910E-004	7	...........	-327.63
	1061	21.24	1.17248E-001	1.97975E-008	0.00000E+000	1.22000E-001	6.57576E-004	7	...........	-327.63
	1071	21.44	1.37168E-001	2.02100E-008	0.00000E+000	1.42000E-001	4.54243E-004	7	...........	-327.63
	1081	21.64	1.57107E-001	2.04183E-008	0.00000E+000	1.62000E-001	4.34243E-004	7	...........	-327.63
	1091	21.84	1.77741E-001	2.09475E-008	0.00000E+000	1.82000E-001	4.35910E-004	7	...........	-327.63
	1101	22.04	1.98190E-001	2.10433E-008	0.00000E+000	2.02000E-001	4.43410E-004	7	...........	-327.63
	1111	22.24	2.16801E-001	2.17392E-008	0.00000E+000	2.22000E-001	4.45076E-004	7	...........	-327.63
	1121	22.44	2.36801E-001	2.17059E-008	0.00000E+000	2.42000E-001	4.40076E-004	7	...........	-327.63
	1131	22.64	2.56824E-001	2.14267E-008	0.00000E+000	2.62000E-001	4.50076E-004	7	...........	-327.63
	1141	22.84	2.76928E-001	2.09267E-008	0.00000E+000	2.82000E-001	4.35910E-004	7	...........	-327.63
	1151	23.04	2.97027E-001	2.08558E-008	0.00000E+000	3.02000E-001	4.59243E-004	7	...........	-327.63
	1161	23.24	3.17120E-001	2.07933E-008	0.00000E+000	3.22000E-001	4.52576E-004	7	...........	-327.63
	1171	23.44	3.37285E-001	2.04016E-008	0.00000E+000	3.42000E-001	4.55076E-004	7	...........	-327.63
	1181	23.64	3.57455E-001	2.03641E-008	0.00000E+000	3.62000E-001	4.40076E-004	7	...........	-327.63
	1191	23.84	3.77661E-001	1.99225E-008	0.00000E+000	3.82000E-001	4.38410E-004	7	...........	-327.63
	1201	24.04	3.97875E-001	1.94683E-008	0.00000E+000	4.02000E-001	4.30076E-004	7	...........	-327.63
	1211	24.24	4.18195E-001	1.93683E-008	0.00000E+000	4.22000E-001	4.48410E-004	7	...........	-327.63
	1221	24.44	4.38341E-001	1.88724E-008	0.00000E+000	4.42000E-001	4.55910E-004	7	...........	-327.63
	1231	24.64	4.58535E-001	1.82682E-008	0.00000E+000	4.62000E-001	4.40910E-004	7	...........	-327.63
	1241	24.84	4.78826E-001	1.77765E-008	0.00000E+000	4.82000E-001	4.29243E-004	7	...........	-327.63
	1251	25.04	4.95098E-001	1.72474E-008	0.00000E+000	4.98000E-001	4.37576E-004	7	...........	-327.63
	1261	25.24	4.75313E-001	1.64640E-008	0.00000E+000	4.78000E-001	4.54243E-004	7	...........	-327.63
	1271	25.44	4.55621E-001	1.62057E-008	0.00000E+000	4.58000E-001	4.65076E-004	7	...........	-327.63
	1281	25.64	4.36015E-001	1.53973E-008	0.00000E+000	4.38000E-001	4.41743E-004	7	...........	-327.63
[...]
	2750	55.02	-5.03297E-001	1.96225E-008	0.00000E+000	-5.00000E-001	4.40910E-004	7	...........	-327.63
CURVE4	TABLE
	Pt	T	Vf	Im	Vu	Sig	Ach	IERange	Over	Temp
	#	s	V vs. Ref.	A	V	V	V	#	bits	deg C
	2751	55.04	-5.01301E-001	1.94974E-008	0.00000E+000	-4.98000E-001	4.59243E-004	7	...........	-327.63
	2754	55.1	-4.95305E-001	1.97058E-008	0.00000E+000	-4.92000E-001	4.33410E-004	7	...........	-327.63
	2757	55.16	-4.89428E-001	1.99183E-008	0.00000E+000	-4.86000E-001	4.48410E-004	7	...........	-327.63
	2760	55.22	-4.83327E-001	1.98558E-008	0.00000E+000	-4.80000E-001	4.47576E-004	7	...........	-327.63
	2763	55.28	-4.77374E-001	1.99641E-008	0.00000E+000	-4.74000E-001	4.52576E-004	7	...........	-327.63
	2766	55.34	-4.71405E-001	1.97808E-008	0.00000E+000	-4.68000E-001	4.52576E-004	7	...........	-327.63
	2769	55.4	-4.65448E-001	2.00891E-008	0.00000E+000	-4.62000E-001	4.40076E-004	7	...........	-327.63
	2772	55.46	-4.59481E-001	1.99475E-008	0.00000E+000	-4.56000E-001	4.53410E-004	7	...........	-327.63
	2775	55.52	-4.53492E-001	1.98433E-008	0.00000E+000	-4.50000E-001	4.34243E-004	7	...........	-327.63
	2778	55.58	-4.47465E-001	1.97600E-008	0.00000E+000	-4.44000E-001	4.49243E-004	7	...........	-327.63
	2781	55.64	-4.41519E-001	1.97433E-008	0.00000E+000	-4.38000E-001	4.51743E-004	7	...........	-327.63
	2784	55.7	-4.35542E-001	2.00558E-008	0.00000E+000	-4.32000E-001	4.53410E-004	7	...........	-327.63
	2787	55.76	-4.29549E-001	2.01266E-008	0.00000E+000	-4.26000E-001	4.38410E-004	7	...........	-327.63
	2790	55.82	-4.23563E-001	2.01183E-008	0.00000E+000	-4.20000E-001	4.35910E-004	7	...........	-327.63
	2793	55.88	-4.17609E-001	2.03058E-008	0.00000E+000	-4.14000E-001	4.54243E-004	7	...........	-327.63
	2796	55.94	-4.11601E-001	1.98600E-008	0.00000E+000	-4.08000E-001	4.43410E-004	7	...........	-327.63
	2799	56	-4.05639E-001	2.00683E-008	0.00000E+000	-4.02000E-001	4.43410E-004	7	...........	-327.63
	2802	56.06	-3.99658E-001	2.01016E-008	0.00000E+000	-3.96000E-001	4.44243E-004	7	...........	-327.63
	2805	56.12	-3.93671E-001	2.00558E-008	0.00000E+000	-3.90000E-001	4.42576E-004	7	...........	-327.63
	2808	56.18	-3.87677E-001	2.04016E-008	0.00000E+000	-3.84000E-001	4.40910E-004	7	...........	-327.63
	2811	56.24	-3.81717E-001	2.02475E-008	0.00000E+000	-3.78000E-001	4.37576E-004	7	...........	-327.63
	2814	56.3	-3.75727E-001	2.03391E-008	0.00000E+000	-3.72000E-001	4.60076E-004	7	...........	-327.63
	2817	56.36	-3.69764E-001	2.01391E-008	0.00000E+000	-3.66000E-001	4.35910E-004	7	...........	-327.63
	2820	56.42	-3.63754E-001	2.00725E-008	0.00000E+000	-3.60000E-001	4.60076E-004	7	...........	-327.63
	2823	56.48	-3.57787E-001	2.03433E-008	0.00000E+000	-3.54000E-001	4.14243E-004	7	...........	-327.63
	2826	56.54	-3.51825E-001	2.03433E-008	0.00000E+000	-3.48000E-001	4.45910E-004	7	...........	-327.63
	2829	56.6	-3.45855E-001	2.01183E-008	0.00000E+000	-3.42000E-001	4.43410E-004	7	...........	-327.63
	2832	56.66	-3.39842E-001	2.01475E-008	0.00000E+000	-3.36000E-001	4.65076E-004	7	...........	-327.63
	2835	56.72	-3.33869E-001	2.01350E-008	0.00000E+000	-3.30000E-001	4.30076E-004	7	...........	-327.63
	2838	56.78	-3.27894E-001	2.02475E-008	0.00000E+000	-3.24000E-001	4.44243E-004	7	...........	-327.63
	2841	56.84	-3.21921E-001	2.02100E-008	0.00000E+000	-3.18000E-001	4.23410E-004	7	...........	-327.63
	2844	56.9	-3.15935E-001	2.01016E-008	0.00000E+000	-3.12000E-001	4.60910E-004	7	...........	-327.63
	2847	56.96	-3.09960E-001	2.01141E-008	0.00000E+000	-3.06000E-001	4.33410E-004	7	...........	-327.63
	2850	57.02	-3.04003E-001	2.01891E-008	0.00000E+000	-3.00000E-001	4.50076E-004	7	...........	-327.63
	2853	57.08	-2.98021E-001	2.03350E-008	0.00000E+000	-2.94000E-001	4.43410E-004	7	...........	-327.63
	2856	57.14	-2.92040E-001	2.02641E-008	0.00000E+000	-2.88000E-001	4.44243E-004	7	...........	-327.63
	2859	57.2	-2.86049E-001	2.06767E-008	0.00000E+000	-2.82000E-001	4.51743E-004	7	...........	-327.63
	2862	57.26	-2.80072E-001	2.05975E-008	0.00000E+000	-2.76000E-001	4.50076E-004	7	...........	-327.63
	2865	57.32	-2.74076E-001	2.05975E-008	0.00000E+000	-2.70000E-001	4.24243E-004	7	...........	-327.63
	2868	57.38	-2.68103E-001	2.05058E-008	0.00000E+000	-2.64000E-001	4.42576E-004	7	...........	-327.63
	2871	57.44	-2.62121E-001	2.05975E-008	0.00000E+000	-2.58000E-001	4.40076E-004	7	...........	-327.63
	2874	57.5	-2.56139E-001	2.07058E-008	0.00000E+000	-2.52000E-001	4.43410E-004	7	...........	-327.63
	2877	57.56	-2.50183E-001	2.08183E-008	0.00000E+000	-2.46000E-001	4.36743E-004	7	...........	-327.63
	2880	57.62	-2.44193E-001	2.07517E-008	0.00000E+000	-2.40000E-001	4.39243E-004	7	...........	-327.63
	2883	57.68	-2.38198E-001	2.07350E-008	0.00000E+000	-2.34000E-001	4.39243E-004	7	...........	-327.63
	2886	57.74	-2.32216E-001	2.07600E-008	0.00000E+000	-2.28000E-001	4.60076E-004	7	...........	-327.63
	2889	57.8	-2.26251E-001	2.08017E-008	0.00000E+000	-2.22000E-001	4.42576E-004	7	...........	-327.63
	2892	57.86	-2.20262E-001	2.06642E-008	0.00000E+000	-2.16000E-001	4.58410E-004	7	...........	-327.63
	2895	57.92	-2.14276E-001	2.06475E-008	0.00000E+000	-2.10000E-001	4.50910E-004	7	...........	-327.63
	2898	57.98	-2.08279E-001	2.08225E-008	0.00000E+000	-2.04000E-001	4.35076E-004	7	...........	-327.63
	2901	58.04	-2.02322E-001	2.06225E-008	0.00000E+000	-1.98000E-001	4.34243E-004	7	...........	-327.63
	2904	58.1	-1.96349E-001	2.08058E-008	0.00000E+000	-1.92000E-001	4.44243E-004	7	...........	-327.63
	2907	58.16	-1.90347E-001	2.08975E-008	0.00000E+000	-1.86000E-001	4.39243E-004	7	...........	-327.63
	2910	58.22	-1.84355E-001	2.07933E-008	0.00000E+000	-1.80000E-001	4.17576E-004	7	...........	-327.63
	2913	58.28	-1.78413E-001	2.08850E-008	0.00000E+000	-1.74000E-001	4.52576E-004	7	...........	-327.63
	2916	58.34	-1.72430E-001	2.09058E-008	0.00000E+000	-1.68000E-001	4.33410E-004	7	...........	-327.63
	2919	58.4	-1.66437E-001	2.07642E-008	0.00000E+000	-1.62000E-001	4.55076E-004	7	...........	-327.63
	2922	58.46	-1.60439E-001	2.10100E-008	0.00000E+000	-1.56000E-001	4.50910E-004	7	...........	-327.63
	2925	58.52	-1.54452E-001	2.10642E-008	0.00000E+000	-1.50000E-001	4.34243E-004	7	...........	-327.63
	2928	58.58	-1.48493E-001	2.10017E-008	0.00000E+000	-1.44000E-001	4.29243E-004	7	...........	-327.63
	2931	58.64	-1.42509E-001	2.11267E-008	0.00000E+000	-1.38000E-001	4.50910E-004	7	...........	-327.63
	2934	58.7	-1.36511E-001	2.11267E-008	0.00000E+000	-1.32000E-001	4.50076E-004	7	...........	-327.63
	2937	58.76	-1.30518E-001	2.10558E-008	0.00000E+000	-1.26000E-001	4.28410E-004	7	...........	-327.63
	2940	58.82	-1.24532E-001	2.11558E-008	0.00000E+000	-1.20000E-001	4.45076E-004	7	...........	-327.63
	2943	58.88	-1.18566E-001	2.14559E-008	0.00000E+000	-1.14000E-001	4.30076E-004	7	...........	-327.63
	2946	58.94	-1.12583E-001	2.10850E-008	0.00000E+000	-1.08000E-001	4.55076E-004	7	...........	-327.63
	2949	59	-1.06596E-001	2.12392E-008	0.00000E+000	-1.02000E-001	4.40910E-004	7	...........	-327.63
	2952	59.06	-1.00620E-001	2.09475E-008	0.00000E+000	-9.60000E-002	4.43410E-004	7	...........	-327.63
	2955	59.12	-9.46420E-002	2.10808E-008	0.00000E+000	-9.00000E-002	4.35076E-004	7	...........	-327.63
	2958	59.18	-8.86562E-002	2.10433E-008	0.00000E+000	-8.40000E-002	4.19243E-004	7	...........	-327.63
	2961	59.24	-8.26562E-002	2.10350E-008	0.00000E+000	-7.80000E-002	4.35076E-004	7	...........	-327.63
	2964	59.3	-7.66795E-002	2.11225E-008	0.00000E+000	-7.20000E-002	4.55910E-004	7	...........	-327.63
	2967	59.36	-7.07041E-002	2.11517E-008	0.00000E+000	-6.60000E-002	4.47576E-004	7	...........	-327.63
	2970	59.42	-6.47141E-002	2.11392E-008	0.00000E+000	-6.00000E-002	4.41743E-004	7	...........	-327.63
	2973	59.48	-5.87212E-002	2.13767E-008	0.00000E+000	-5.40000E-002	4.75910E-004	7	...........	-327.63
	2976	59.54	-5.27303E-002	2.14100E-008	0.00000E+000	-4.80000E-002	4.39243E-004	7	...........	-327.63
	2979	59.6	-4.67582E-002	2.13517E-008	0.00000E+000	-4.20000E-002	4.29243E-004	7	...........	-327.63
	2982	59.66	-4.07703E-002	2.15392E-008	0.00000E+000	-3.60000E-002	4.45076E-004	7	...........	-327.63
	2985	59.72	-3.48045E-002	2.15475E-008	0.00000E+000	-3.00000E-002	4.60076E-004	7	...........	-327.63
	2988	59.78	-2.87907E-002	2.15767E-008	0.00000E+000	-2.40000E-002	4.43410E-004	7	...........	-327.63
	2991	59.84	-2.28187E-002	2.15059E-008	0.00000E+000	-1.80000E-002	4.37576E-004	7	...........	-327.63
	2994	59.9	-1.68312E-002	2.15059E-008	0.00000E+000	-1.20000E-002	4.44243E-004	7	...........	-327.63
	2997	59.96	-1.08491E-002	2.15434E-008	0.00000E+000	-6.00000E-003	4.50910E-004	7	...........	-327.63
	3000	60.02	-4.86449E-003	2.16142E-008	0.00000E+000	0.00000E+000	4.48410E-004	7	...........	-327.63