File: Gamry/CV_fullWindow_newBuffer_1.DTA
EXPLAIN
TAG	CV
TITLE	LABEL	Cyclic Voltammetry	Test &Identifier
DATE	LABEL	5-12-2022	Date
TIME	LABEL	13:25:38	Time
NOTES	NOTES	1	&Notes...

PSTAT	PSTAT	REF3000-20110	Potentiostat
VINIT	POTEN	0.00000E+000	F	Initial &E (V)
VLIMIT1	POTEN	5.00000E-001	F	Scan Limit &1 (V)
VLIMIT2	POTEN	-5.00000E-001	F	Scan Limit &2 (V)
VFINAL	POTEN	0.00000E+000	F	Final &E (V)
SCANRATE	QUANT	9.99998E+001	&Scan Rate (mV/s)
STEPSIZE	QUANT	2.00000E+000	St&ep Size (mV)
CYCLES	IQUANT	3	C&ycles (#)
IMODE	SELECTOR	0	I/E Range &Mode
IRANGE	QUANT	3.00000E-001	&Max Current (mA)
AREA	QUANT	1.00000E+000	Electrode &Area (cm^2)
ELECTRODETYPE	SELECTOR	0	Electrode Type
STRIPPING	TOGGLE	F	Used for Stripping
CONDIT	TWOPARAM	F	1.50000E+001	0.00000E+000	Conditionin&g	Time(s)	E(V)
DELAY	TWOPARAM	F	3.00000E+001	0.00000E+000	Init. De&lay	Time(s)	Stab.(mV/s)
EQDELAY	QUANT	0.00000E+000	Equil. &Time (s)
IRCOMP	SELECTOR	0	IRCom&p
PFCOR	QUANT	5.00000E+001	PF Corr. (ohm)
SAMPLINGMODE	SELECTOR	1	Sampling &Mode
EOC	QUANT	0	Open Circuit (V)
PSTATMODEL	IQUANT	5	Pstat Model
PSTATSECTION	LABEL	REF3000-20110	Pstat Section
PSTATSERIALNO	LABEL	20110	Pstat Serial Number
CTRLMODE	IQUANT	1	Control Mode
ELECTROMETER	IQUANT	0	RE=0 or CS=1
IESTAB	IQUANT	2	I/E Stability
CASPEED	IQUANT	4	Control Amp Speed
CONVENTION	IQUANT	1	Current Convention
ICHRANGE	IQUANT	2	Ich Range
ICHRANGEMODE	TOGGLE	F	Ich Auto Range
ICHOFFSETENABLE	TOGGLE	F	Ich Offset Enable
ICHOFFSET	QUANT	0	Ich Offset (V)
ICHFILTER	IQUANT	2	Ich Filter
VCHRANGE	IQUANT	2	Vch Range
VCHRANGEMODE	TOGGLE	F	Vch Auto Range
VCHOFFSETENABLE	TOGGLE	F	Vch Offset Enable
VCHOFFSET	QUANT	0	Vch Offset (V)
VCHFILTER	IQUANT	2	Vch Filter
ACHRANGE	IQUANT	2	Ach Range
ACHOFFSETENABLE	TOGGLE	F	Ach Offset Enable
ACHOFFSET	QUANT	0	Ach Offset (V)
ACHFILTER	IQUANT	1	Ach Filter
IERANGELOWERLIMIT	IQUANT	2	I/E Range Lower Limit
IERANGEMODE	TOGGLE	T	I/E AutoRange
IERANGE	IQUANT	9	I/E Range
POSFEEDENABLE	TOGGLE	F	Positive Feedback IR Comp
POSFEEDRESISTANCE	QUANT	0	Positive Feedback Resistance (ohm)
ACHSELECT	IQUANT	4	Ach Select
SENSECABLEID	IQUANT	14	Sense Cable ID
PWRCABLEID	IQUANT	7	Power Cable ID
DCCALDATE	LABEL	8/9/2022	DC Calibration Date
ACCALDATE	LABEL	8/9/2022	AC Calibration Date
THERMOSELECT	IQUANT	1	Thermo Select
FRAMEWORKVERSION	LABEL	7.9.0	Framework Version
INSTRUMENTVERSION	LABEL	4.60	Instrument Version
COMPLIANCEVOLTAGE	IQUANT	0	Compliance Voltage
CURVE1	TABLE
	Pt	T	Vf	Im	Vu	Sig	Ach	IERange	Over	Temp
	#	s	V vs. Ref.	A	V	V	V	#	bits	deg C
	0	0.02	-4.39069E-003	-8.27571E-008	0.00000E+000	0.00000E+000	7.13410E-004	9	...........	-327.63
	8	0.18	1.17876E-002	2.03433E-008	0.00000E+000	1.60000E-002	7.12576E-004	7	...........	-327.63
	16	0.34	2.78555E-002	1.97183E-008	0.00000E+000	3.20000E-002	7.18410E-004	7	...........	-327.63
	24	0.5	4.39176E-002	1.96099E-008	0.00000E+000	4.80000E-002	6.85076E-004	7	...........	-327.63
	32	0.66	6.00130E-002	1.90266E-008	0.00000E+000	6.40000E-002	7.05076E-004	7	...........	-327.63
	40	0.82	7.61230E-002	1.86682E-008	0.00000E+000	8.00000E-002	7.25076E-004	7	...........	-327.63
	48	0.98	9.23068E-002	1.80557E-008	0.00000E+000	9.60000E-002	7.11743E-004	7	...........	-327.63
	56	1.14	1.08393E-001	1.75890E-008	0.00000E+000	1.12000E-001	7.28410E-004	7	...........	-327.63
	64	1.3	1.24484E-001	1.72515E-008	0.00000E+000	1.28000E-001	7.45910E-004	7	...........	-327.63
	72	1.46	1.40541E-001	1.66848E-008	0.00000E+000	1.44000E-001	7.25910E-004	7	...........	-327.63
	80	1.62	1.56713E-001	1.61348E-008	0.00000E+000	1.60000E-001	7.15910E-004	7	...........	-327.63
	88	1.78	1.72785E-001	1.56598E-008	0.00000E+000	1.76000E-001	7.40076E-004	7	...........	-327.63
	96	1.94	1.88924E-001	1.53056E-008	0.00000E+000	1.92000E-001	7.22576E-004	7	...........	-327.63
	104	2.1	2.05016E-001	1.45348E-008	0.00000E+000	2.08000E-001	7.15076E-004	7	...........	-327.63
	112	2.26	2.21170E-001	1.40056E-008	0.00000E+000	2.24000E-001	7.07576E-004	7	...........	-327.63
	120	2.42	2.37329E-001	1.34139E-008	0.00000E+000	2.40000E-001	7.18410E-004	7	...........	-327.63
	128	2.58	2.53445E-001	1.29555E-008	0.00000E+000	2.56000E-001	7.25076E-004	7	...h.......	-327.63
	136	2.74	2.69639E-001	1.18638E-008	0.00000E+000	2.72000E-001	6.90910E-004	7	...h.......	-327.63
	144	2.9	2.85796E-001	1.11888E-008	0.00000E+000	2.88000E-001	7.15910E-004	7	...h.......	-327.63
	152	3.06	3.01899E-001	1.07305E-008	0.00000E+000	3.04000E-001	7.13410E-004	7	...........	-327.63
	160	3.22	3.18032E-001	1.00804E-008	0.00000E+000	3.20000E-001	7.11743E-004	7	...h.......	-327.63
	168	3.38	3.34178E-001	9.43457E-009	0.00000E+000	3.36000E-001	7.12576E-004	7	...h.......	-327.63
	176	3.54	3.50324E-001	8.63454E-009	0.00000E+000	3.52000E-001	7.40076E-004	7	...h.......	-327.63
	184	3.7	3.66531E-001	7.56783E-009	0.00000E+000	3.68000E-001	7.17576E-004	7	...........	-327.63
	192	3.86	3.82728E-001	6.69280E-009	0.00000E+000	3.84000E-001	7.13410E-004	7	...........	-327.63
	200	4.02	3.98934E-001	5.86360E-009	0.00000E+000	4.00000E-001	7.14243E-004	7	...........	-327.63
	208	4.18	4.15144E-001	5.04691E-009	0.00000E+000	4.16000E-001	7.19243E-004	7	...........	-327.63
	216	4.34	4.31314E-001	4.38855E-009	0.00000E+000	4.32000E-001	7.35076E-004	7	...........	-327.63
	224	4.5	4.47497E-001	3.83436E-009	0.00000E+000	4.48000E-001	7.19243E-004	7	...........	-327.63
	232	4.66	4.63643E-001	2.75515E-009	0.00000E+000	4.64000E-001	7.13410E-004	7	...........	-327.63
	240	4.82	4.79843E-001	2.10096E-009	0.00000E+000	4.80000E-001	7.30076E-004	7	...........	-327.63
	248	4.98	4.96080E-001	1.28010E-009	0.00000E+000	4.96000E-001	7.21743E-004	7	...........	-327.63
	256	5.14	4.88321E-001	1.88392E-010	0.00000E+000	4.88000E-001	7.22576E-004	7	...........	-327.63
	264	5.3	4.72568E-001	-3.61628E-010	0.00000E+000	4.72000E-001	7.26743E-004	7	...........	-327.63
	272	5.46	4.56768E-001	-1.06582E-009	0.00000E+000	4.56000E-001	7.23410E-004	7	...........	-327.63
	280	5.62	4.40977E-001	-1.68668E-009	0.00000E+000	4.40000E-001	6.98410E-004	7	...........	-327.63
	288	5.78	4.25170E-001	-2.20753E-009	0.00000E+000	4.24000E-001	7.19243E-004	7	...........	-327.63
	296	5.94	4.09370E-001	-3.10340E-009	0.00000E+000	4.08000E-001	7.31743E-004	7	...........	-327.63
	304	6.1	3.93570E-001	-3.68675E-009	0.00000E+000	3.92000E-001	7.04243E-004	7	...........	-327.63
	312	6.26	3.77713E-001	-4.23677E-009	0.00000E+000	3.76000E-001	7.01743E-004	7	...........	-327.63
	320	6.42	3.61883E-001	-4.86180E-009	0.00000E+000	3.60000E-001	7.13410E-004	7	...........	-327.63
	328	6.58	3.46079E-001	-5.38682E-009	0.00000E+000	3.44000E-001	7.07576E-004	7	...........	-327.63
	336	6.74	3.30223E-001	-6.13268E-009	0.00000E+000	3.28000E-001	7.15910E-004	7	...........	-327.63
	344	6.9	3.14393E-001	-6.94521E-009	0.00000E+000	3.12000E-001	7.15910E-004	7	...........	-327.63
	352	7.06	2.98548E-001	-7.57440E-009	0.00000E+000	2.96000E-001	7.09243E-004	7	...........	-327.63
	360	7.22	2.82663E-001	-7.91191E-009	0.00000E+000	2.80000E-001	7.00910E-004	7	...........	-327.63
	368	7.38	2.66766E-001	-8.04942E-009	0.00000E+000	2.64000E-001	7.20910E-004	7	...........	-327.63
	376	7.54	2.50801E-001	-8.28276E-009	0.00000E+000	2.48000E-001	7.29243E-004	7	...........	-327.63
	384	7.7	2.34834E-001	-8.45360E-009	0.00000E+000	2.32000E-001	7.24243E-004	7	...........	-327.63
	392	7.86	2.18869E-001	-8.68277E-009	0.00000E+000	2.16000E-001	7.29243E-004	7	...........	-327.63
	400	8.02	2.02924E-001	-9.24113E-009	0.00000E+000	2.00000E-001	7.18410E-004	7	...........	-327.63
	408	8.18	1.86993E-001	-9.60364E-009	0.00000E+000	1.84000E-001	7.18410E-004	7	...........	-327.63
	416	8.34	1.71036E-001	-9.79948E-009	0.00000E+000	1.68000E-001	7.15076E-004	7	...........	-327.63
	424	8.5	1.55041E-001	-9.72864E-009	0.00000E+000	1.52000E-001	7.14243E-004	7	...........	-327.63
	432	8.66	1.39043E-001	-9.54530E-009	0.00000E+000	1.36000E-001	7.29243E-004	7	...........	-327.63
	440	8.82	1.22972E-001	-9.78698E-009	0.00000E+000	1.20000E-001	7.31743E-004	7	...........	-327.63
	448	8.98	1.06945E-001	-9.69948E-009	0.00000E+000	1.04000E-001	7.13410E-004	7	...........	-327.63
	456	9.14	9.09368E-002	-9.74531E-009	0.00000E+000	8.80000E-002	7.40076E-004	7	...........	-327.63
	464	9.3	7.49143E-002	-9.92032E-009	0.00000E+000	7.20000E-002	7.25910E-004	7	...........	-327.63
	472	9.46	5.89118E-002	-9.79115E-009	0.00000E+000	5.60000E-002	7.35076E-004	7	...........	-327.63
	480	9.62	4.29084E-002	-9.49947E-009	0.00000E+000	4.00000E-002	7.25076E-004	7	...........	-327.63
	488	9.78	2.68351E-002	-9.10779E-009	0.00000E+000	2.40000E-002	7.28410E-004	7	...........	-327.63
	496	9.94	1.07334E-002	-8.99945E-009	0.00000E+000	8.00000E-003	7.25910E-004	7	...........	-327.63
	504	10.1	-5.33241E-003	-8.83278E-009	0.00000E+000	-8.00000E-003	7.15910E-004	7	...........	-327.63
	512	10.26	-2.14416E-002	-8.32026E-009	0.00000E+000	-2.40000E-002	7.24243E-004	7	...........	-327.63
	520	10.42	-3.74745E-002	-7.87441E-009	0.00000E+000	-4.00000E-002	7.15076E-004	7	...........	-327.63
	528	10.58	-5.35841E-002	-7.39939E-009	0.00000E+000	-5.60000E-002	7.04243E-004	7	...........	-327.63
	536	10.74	-6.96020E-002	-7.13271E-009	0.00000E+000	-7.20000E-002	7.01743E-004	7	...........	-327.63
	544	10.9	-8.57524E-002	-6.68270E-009	0.00000E+000	-8.80000E-002	6.86743E-004	7	...........	-327.63
	552	11.06	-1.01774E-001	-6.57019E-009	0.00000E+000	-1.04000E-001	7.36743E-004	7	...........	-327.63
	560	11.22	-1.17845E-001	-5.91184E-009	0.00000E+000	-1.20000E-001	7.28410E-004	7	...........	-327.63
	568	11.38	-1.34020E-001	-5.35348E-009	0.00000E+000	-1.36000E-001	7.31743E-004	7	...........	-327.63
	576	11.54	-1.47873E-001	-5.00347E-009	0.00000E+000	-1.52000E-001	7.30076E-004	7	...........	-327.63
	584	11.7	-1.64170E-001	-4.27844E-009	0.00000E+000	-1.68000E-001	7.12576E-004	7	...........	-327.63
	592	11.86	-1.81046E-001	-3.38257E-009	0.00000E+000	-1.84000E-001	7.23410E-004	7	...........	-327.63
	600	12.02	-1.96287E-001	-2.64505E-009	0.00000E+000	-2.00000E-001	7.02576E-004	7	...........	-327.63
	608	12.18	-2.13083E-001	-2.30753E-009	0.00000E+000	-2.16000E-001	7.17576E-004	7	...........	-327.63
	616	12.34	-2.29589E-001	-1.77001E-009	0.00000E+000	-2.32000E-001	6.91743E-004	7	...........	-327.63
	624	12.5	-2.44468E-001	-1.09499E-009	0.00000E+000	-2.48000E-001	7.18410E-004	7	...........	-327.63
	632	12.66	-2.61092E-001	-1.44954E-010	0.00000E+000	-2.64000E-001	7.33410E-004	7	...........	-327.63
	640	12.82	-2.77023E-001	6.33874E-011	0.00000E+000	-2.80000E-001	7.16743E-004	7	...........	-327.63
	648	12.98	-2.93191E-001	1.23010E-009	0.00000E+000	-2.96000E-001	7.26743E-004	7	...........	-327.63
	656	13.14	-3.09074E-001	1.93012E-009	0.00000E+000	-3.12000E-001	7.17576E-004	7	...........	-327.63
	664	13.3	-3.25379E-001	2.68432E-009	0.00000E+000	-3.28000E-001	7.30910E-004	7	...........	-327.63
	672	13.46	-3.41500E-001	3.44685E-009	0.00000E+000	-3.44000E-001	7.40910E-004	7	...........	-327.63
	680	13.62	-3.57533E-001	4.30938E-009	0.00000E+000	-3.60000E-001	7.29243E-004	7	...........	-327.63
	688	13.78	-3.73701E-001	4.86773E-009	0.00000E+000	-3.76000E-001	7.21743E-004	7	...........	-327.63
	696	13.94	-3.89913E-001	5.59693E-009	0.00000E+000	-3.92000E-001	7.27576E-004	7	...........	-327.63
	704	14.1	-4.06294E-001	6.06361E-009	0.00000E+000	-4.08000E-001	7.14243E-004	7	...........	-327.63
	712	14.26	-4.22184E-001	7.09698E-009	0.00000E+000	-4.24000E-001	7.23410E-004	7	...........	-327.63
	720	14.42	-4.38917E-001	8.03868E-009	0.00000E+000	-4.40000E-001	7.16743E-004	7	...........	-327.63
	728	14.58	-4.56906E-001	9.42207E-009	0.00000E+000	-4.56000E-001	7.21743E-004	7	...........	-327.63
	736	14.74	-4.71977E-001	9.86375E-009	0.00000E+000	-4.72000E-001	7.13410E-004	7	...........	-327.63
	744	14.9	-4.88040E-001	1.06721E-008	0.00000E+000	-4.88000E-001	7.39243E-004	7	...........	-327.63
	750	15.02	-4.99312E-001	1.11888E-008	0.00000E+000	-5.00000E-001	7.35910E-004	7	...........	-327.63
CURVE2	TABLE
	Pt	T	Vf	Im	Vu	Sig	Ach	IERange	Over	Temp
	#	s	V vs. Ref.	A	V	V	V	#	bits	deg C
	751	15.04	-4.97830E-001	1.13096E-008	0.00000E+000	-4.98000E-001	6.25910E-004	7	...........	-327.63
	761	15.24	-4.77435E-001	1.22847E-008	0.00000E+000	-4.78000E-001	6.67576E-004	7	...........	-327.63
	771	15.44	-4.57834E-001	1.31430E-008	0.00000E+000	-4.58000E-001	6.40910E-004	7	...........	-327.63
	781	15.64	-4.38919E-001	1.43806E-008	0.00000E+000	-4.38000E-001	6.55910E-004	7	...........	-327.63
	791	15.84	-4.19009E-001	1.50056E-008	0.00000E+000	-4.18000E-001	6.20076E-004	7	...........	-327.63
	801	16.04	-3.98973E-001	1.55473E-008	0.00000E+000	-3.98000E-001	6.35076E-004	7	...........	-327.63
	811	16.24	-3.78826E-001	1.63557E-008	0.00000E+000	-3.78000E-001	6.48410E-004	7	...........	-327.63
	821	16.44	-3.58464E-001	1.68557E-008	0.00000E+000	-3.58000E-001	6.67576E-004	7	...........	-327.63
	831	16.64	-3.38312E-001	1.78307E-008	0.00000E+000	-3.38000E-001	6.70910E-004	7	...........	-327.63
	841	16.84	-3.19053E-001	1.81516E-008	0.00000E+000	-3.18000E-001	6.12576E-004	7	...........	-327.63
	851	17.04	-2.98102E-001	1.87516E-008	0.00000E+000	-2.98000E-001	6.48410E-004	7	...........	-327.63
	861	17.24	-2.78051E-001	1.91099E-008	0.00000E+000	-2.78000E-001	6.55076E-004	7	...........	-327.63
	871	17.44	-2.58299E-001	1.94516E-008	0.00000E+000	-2.58000E-001	6.62576E-004	7	...........	-327.63
	881	17.64	-2.37906E-001	1.98266E-008	0.00000E+000	-2.38000E-001	6.35076E-004	7	...........	-327.63
	891	17.84	-2.17808E-001	2.01725E-008	0.00000E+000	-2.18000E-001	6.75910E-004	7	...........	-327.63
	901	18.04	-1.97783E-001	2.04516E-008	0.00000E+000	-1.98000E-001	6.61743E-004	7	...........	-327.63
	911	18.24	-1.77766E-001	2.07600E-008	0.00000E+000	-1.78000E-001	6.50910E-004	7	...........	-327.63
	921	18.44	-1.57749E-001	2.08850E-008	0.00000E+000	-1.58000E-001	6.42576E-004	7	...........	-327.63
	931	18.64	-1.37762E-001	2.09142E-008	0.00000E+000	-1.38000E-001	6.02576E-004	7	...........	-327.63
	941	18.84	-1.17734E-001	2.11142E-008	0.00000E+000	-1.18000E-001	6.76743E-004	7	...........	-327.63
	951	19.04	-9.77566E-002	2.09058E-008	0.00000E+000	-9.80000E-002	6.39243E-004	7	...........	-327.63
	961	19.24	-7.77237E-002	2.03475E-008	0.00000E+000	-7.80000E-002	6.57576E-004	7	...........	-327.63
	971	19.44	-5.77062E-002	2.05600E-008	0.00000E+000	-5.80000E-002	6.36743E-004	7	...........	-327.63
	981	19.64	-3.76995E-002	2.05142E-008	0.00000E+000	-3.80000E-002	6.50910E-004	7	...........	-327.63
	991	19.84	-1.76699E-002	2.03016E-008	0.00000E+000	-1.80000E-002	6.26743E-004	7	...........	-327.63
	1001	20.04	1.07759E-003	2.05183E-008	0.00000E+000	2.00000E-003	6.46743E-004	7	...........	-327.63
	1011	20.24	2.23388E-002	1.99058E-008	0.00000E+000	2.20000E-002	6.51743E-004	7	...........	-327.63
	1021	20.44	4.23663E-002	1.97100E-008	0.00000E+000	4.20000E-002	6.52576E-004	7	...........	-327.63
	1031	20.64	6.23776E-002	1.94308E-008	0.00000E+000	6.20000E-002	6.39243E-004	7	...........	-327.63
	1041	20.84	8.23734E-002	1.89766E-008	0.00000E+000	8.20000E-002	6.38410E-004	7	...........	-327.63
	1051	21.04	1.02399E-001	1.90474E-008	0.00000E+000	1.02000E-001	6.45076E-004	7	...........	-327.63
	1061	21.24	1.22395E-001	1.86849E-008	0.00000E+000	1.22000E-001	6.70910E-004	7	...........	-327.63
	1071	21.44	1.42403E-001	1.88391E-008	0.00000E+000	1.42000E-001	3.80910E-004	7	...........	-327.63
	1081	21.64	1.62441E-001	1.84807E-008	0.00000E+000	1.62000E-001	3.66743E-004	7	...........	-327.63
	1091	21.84	1.82420E-001	1.82141E-008	0.00000E+000	1.82000E-001	3.84243E-004	7	...........	-327.63
	1101	22.04	2.02342E-001	1.78015E-008	0.00000E+000	2.02000E-001	3.95076E-004	7	...........	-327.63
	1111	22.24	2.22433E-001	1.76182E-008	0.00000E+000	2.22000E-001	3.74243E-004	7	...........	-327.63
	1121	22.44	2.42449E-001	1.73682E-008	0.00000E+000	2.42000E-001	3.75076E-004	7	...........	-327.63
	1131	22.64	2.62450E-001	1.70682E-008	0.00000E+000	2.62000E-001	3.84243E-004	7	...........	-327.63
	1141	22.84	2.82465E-001	1.69557E-008	0.00000E+000	2.82000E-001	3.74243E-004	7	...........	-327.63
	1151	23.04	3.02469E-001	1.67890E-008	0.00000E+000	3.02000E-001	3.84243E-004	7	...........	-327.63
	1161	23.24	3.22485E-001	1.62432E-008	0.00000E+000	3.22000E-001	3.75076E-004	7	...........	-327.63
	1171	23.44	3.42508E-001	1.60265E-008	0.00000E+000	3.42000E-001	3.77576E-004	7	...........	-327.63
	1181	23.64	3.62500E-001	1.58223E-008	0.00000E+000	3.62000E-001	3.95910E-004	7	...........	-327.63
	1191	23.84	3.82498E-001	1.57806E-008	0.00000E+000	3.82000E-001	4.05910E-004	7	...........	-327.63
	1201	24.04	4.02515E-001	1.53515E-008	0.00000E+000	4.02000E-001	3.98410E-004	7	...........	-327.63
	1211	24.24	4.22515E-001	1.49389E-008	0.00000E+000	4.22000E-001	3.95076E-004	7	...........	-327.63
	1221	24.44	4.42544E-001	1.48264E-008	0.00000E+000	4.42000E-001	4.17576E-004	7	...........	-327.63
	1231	24.64	4.62539E-001	1.42931E-008	0.00000E+000	4.62000E-001	3.78410E-004	7	...........	-327.63
	1241	24.84	4.82541E-001	1.41222E-008	0.00000E+000	4.82000E-001	4.12576E-004	7	...........	-327.63
	1251	25.04	4.98556E-001	1.39097E-008	0.00000E+000	4.98000E-001	4.05910E-004	7	...........	-327.63
	1261	25.24	4.78665E-001	1.34181E-008	0.00000E+000	4.78000E-001	3.88410E-004	7	...........	-327.63
	1271	25.44	4.58740E-001	1.29972E-008	0.00000E+000	4.58000E-001	3.91743E-004	7	...........	-327.63
	1281	25.64	4.38816E-001	1.26305E-008	0.00000E+000	4.38000E-001	4.06743E-004	7	...........	-327.63
[...]
CURVE4	TABLE
	Pt	T	Vf	Im	Vu	Sig	Ach	IERange	Over	Temp
	#	s	V vs. Ref.	A	V	V	V	#	bits	deg C
	2751	55.04	-4.96080E-001	-6.26602E-009	0.00000E+000	-4.98000E-001	3.74243E-004	7	...........	-327.63
	2754	55.1	-4.90145E-001	-5.94100E-009	0.00000E+000	-4.92000E-001	3.95910E-004	7	...........	-327.63
	2757	55.16	-4.84209E-001	-6.05351E-009	0.00000E+000	-4.86000E-001	3.83410E-004	7	...........	-327.63
	2760	55.22	-4.78253E-001	-5.57016E-009	0.00000E+000	-4.80000E-001	4.07576E-004	7	...........	-327.63
	2763	55.28	-4.72286E-001	-5.65349E-009	0.00000E+000	-4.74000E-001	3.90910E-004	7	...........	-327.63
	2766	55.34	-4.66295E-001	-5.61599E-009	0.00000E+000	-4.68000E-001	3.81743E-004	7	...........	-327.63
	2769	55.4	-4.60336E-001	-5.42015E-009	0.00000E+000	-4.62000E-001	3.82576E-004	7	...........	-327.63
	2772	55.46	-4.54346E-001	-5.31181E-009	0.00000E+000	-4.56000E-001	3.80910E-004	7	...........	-327.63
	2775	55.52	-4.48372E-001	-5.13681E-009	0.00000E+000	-4.50000E-001	3.86743E-004	7	...........	-327.63
	2778	55.58	-4.42418E-001	-5.00763E-009	0.00000E+000	-4.44000E-001	3.98410E-004	7	...........	-327.63
	2781	55.64	-4.36444E-001	-4.94930E-009	0.00000E+000	-4.38000E-001	3.82576E-004	7	...........	-327.63
	2784	55.7	-4.30468E-001	-4.74096E-009	0.00000E+000	-4.32000E-001	3.95076E-004	7	...........	-327.63
	2787	55.76	-4.24484E-001	-4.64929E-009	0.00000E+000	-4.26000E-001	4.10076E-004	7	...........	-327.63
	2790	55.82	-4.18528E-001	-4.44095E-009	0.00000E+000	-4.20000E-001	3.81743E-004	7	...........	-327.63
	2793	55.88	-4.12561E-001	-4.38678E-009	0.00000E+000	-4.14000E-001	3.89243E-004	7	...........	-327.63
	2796	55.94	-4.06606E-001	-4.31594E-009	0.00000E+000	-4.08000E-001	3.74243E-004	7	...........	-327.63
	2799	56	-4.00635E-001	-4.27011E-009	0.00000E+000	-4.02000E-001	4.18410E-004	7	...........	-327.63
	2802	56.06	-3.94657E-001	-3.89093E-009	0.00000E+000	-3.96000E-001	3.80910E-004	7	...........	-327.63
	2805	56.12	-3.88714E-001	-3.72009E-009	0.00000E+000	-3.90000E-001	3.90910E-004	7	...........	-327.63
	2808	56.18	-3.82727E-001	-3.65342E-009	0.00000E+000	-3.84000E-001	3.83410E-004	7	...........	-327.63
	2811	56.24	-3.76739E-001	-3.60342E-009	0.00000E+000	-3.78000E-001	4.05076E-004	7	...........	-327.63
	2814	56.3	-3.70781E-001	-3.58258E-009	0.00000E+000	-3.72000E-001	3.76743E-004	7	...........	-327.63
	2817	56.36	-3.64819E-001	-3.30340E-009	0.00000E+000	-3.66000E-001	3.86743E-004	7	...........	-327.63
	2820	56.42	-3.58837E-001	-3.09923E-009	0.00000E+000	-3.60000E-001	3.80076E-004	7	...........	-327.63
	2823	56.48	-3.52875E-001	-3.10340E-009	0.00000E+000	-3.54000E-001	3.98410E-004	7	...........	-327.63
	2826	56.54	-3.46898E-001	-2.93672E-009	0.00000E+000	-3.48000E-001	3.76743E-004	7	...........	-327.63
	2829	56.6	-3.40952E-001	-2.77839E-009	0.00000E+000	-3.42000E-001	3.83410E-004	7	...........	-327.63
	2832	56.66	-3.34974E-001	-2.61171E-009	0.00000E+000	-3.36000E-001	3.77576E-004	7	...........	-327.63
	2835	56.72	-3.29020E-001	-2.24087E-009	0.00000E+000	-3.30000E-001	3.95076E-004	7	...........	-327.63
	2838	56.78	-3.23016E-001	-2.27837E-009	0.00000E+000	-3.24000E-001	3.74243E-004	7	...........	-327.63
	2841	56.84	-3.17075E-001	-1.93252E-009	0.00000E+000	-3.18000E-001	4.06743E-004	7	...........	-327.63
	2844	56.9	-3.11094E-001	-1.86168E-009	0.00000E+000	-3.12000E-001	3.99243E-004	7	...........	-327.63
	2847	56.96	-3.05171E-001	-1.58667E-009	0.00000E+000	-3.06000E-001	3.89243E-004	7	...........	-327.63
	2850	57.02	-2.99173E-001	-1.30333E-009	0.00000E+000	-3.00000E-001	3.79243E-004	7	...........	-327.63
	2853	57.08	-2.93217E-001	-1.18666E-009	0.00000E+000	-2.94000E-001	4.03410E-004	7	...........	-327.63
	2856	57.14	-2.87261E-001	-9.28316E-010	0.00000E+000	-2.88000E-001	3.95910E-004	7	...........	-327.63
	2859	57.2	-2.81305E-001	-1.01999E-009	0.00000E+000	-2.82000E-001	3.97576E-004	7	...........	-327.63
	2862	57.26	-2.75307E-001	-7.19975E-010	0.00000E+000	-2.76000E-001	3.78410E-004	7	...........	-327.63
	2865	57.32	-2.69337E-001	-7.57477E-010	0.00000E+000	-2.70000E-001	3.83410E-004	7	...........	-327.63
	2868	57.38	-2.63384E-001	-3.24127E-010	0.00000E+000	-2.64000E-001	3.85910E-004	7	...........	-327.63
	2871	57.44	-2.57404E-001	-2.15790E-010	0.00000E+000	-2.58000E-001	3.87576E-004	7	...........	-327.63
	2874	57.5	-2.51456E-001	-7.82846E-011	0.00000E+000	-2.52000E-001	3.75076E-004	7	...........	-327.63
	2877	57.56	-2.45469E-001	1.88392E-010	0.00000E+000	-2.46000E-001	3.83410E-004	7	...........	-327.63
	2880	57.62	-2.39512E-001	2.21727E-010	0.00000E+000	-2.40000E-001	3.85910E-004	7	...........	-327.63
	2883	57.68	-2.33545E-001	4.75903E-010	0.00000E+000	-2.34000E-001	4.08410E-004	7	...........	-327.63
	2886	57.74	-2.27597E-001	8.42583E-010	0.00000E+000	-2.28000E-001	4.12576E-004	7	...........	-327.63
	2889	57.8	-2.21596E-001	6.63410E-010	0.00000E+000	-2.22000E-001	3.89243E-004	7	...........	-327.63
	2892	57.86	-2.15625E-001	9.50920E-010	0.00000E+000	-2.16000E-001	4.00076E-004	7	...........	-327.63
	2895	57.92	-2.09665E-001	1.12593E-009	0.00000E+000	-2.10000E-001	3.81743E-004	7	...........	-327.63
	2898	57.98	-2.03714E-001	1.30093E-009	0.00000E+000	-2.04000E-001	3.91743E-004	7	...........	-327.63
	2901	58.04	-1.97721E-001	1.49677E-009	0.00000E+000	-1.98000E-001	3.95910E-004	7	...........	-327.63
	2904	58.1	-1.91761E-001	1.53844E-009	0.00000E+000	-1.92000E-001	3.90910E-004	7	...........	-327.63
	2907	58.16	-1.85797E-001	1.60928E-009	0.00000E+000	-1.86000E-001	4.11743E-004	7	...........	-327.63
	2910	58.22	-1.79817E-001	1.75928E-009	0.00000E+000	-1.80000E-001	4.05076E-004	7	...........	-327.63
	2913	58.28	-1.73836E-001	2.03013E-009	0.00000E+000	-1.74000E-001	3.69243E-004	7	...........	-327.63
	2916	58.34	-1.67850E-001	2.27597E-009	0.00000E+000	-1.68000E-001	3.75910E-004	7	...........	-327.63
	2919	58.4	-1.61917E-001	2.50515E-009	0.00000E+000	-1.62000E-001	3.59243E-004	7	...........	-327.63
	2922	58.46	-1.55929E-001	2.66348E-009	0.00000E+000	-1.56000E-001	3.95076E-004	7	...........	-327.63
	2925	58.52	-1.49983E-001	2.77599E-009	0.00000E+000	-1.50000E-001	3.77576E-004	7	...........	-327.63
	2928	58.58	-1.43991E-001	3.18850E-009	0.00000E+000	-1.44000E-001	4.01743E-004	7	...........	-327.63
	2931	58.64	-1.38048E-001	3.48018E-009	0.00000E+000	-1.38000E-001	3.76743E-004	7	...........	-327.63
	2934	58.7	-1.32085E-001	3.70102E-009	0.00000E+000	-1.32000E-001	3.95076E-004	7	...........	-327.63
	2937	58.76	-1.26103E-001	3.89270E-009	0.00000E+000	-1.26000E-001	3.80910E-004	7	...........	-327.63
	2940	58.82	-1.20152E-001	4.02604E-009	0.00000E+000	-1.20000E-001	3.80910E-004	7	...........	-327.63
	2943	58.88	-1.14184E-001	4.18854E-009	0.00000E+000	-1.14000E-001	4.10076E-004	7	...........	-327.63
	2946	58.94	-1.08236E-001	4.16354E-009	0.00000E+000	-1.08000E-001	4.06743E-004	7	...........	-327.63
	2949	59	-1.02264E-001	4.53022E-009	0.00000E+000	-1.02000E-001	3.78410E-004	7	...........	-327.63
	2952	59.06	-9.62991E-002	4.65939E-009	0.00000E+000	-9.60000E-002	4.20910E-004	7	...........	-327.63
	2955	59.12	-9.03191E-002	4.72189E-009	0.00000E+000	-9.00000E-002	3.70076E-004	7	...........	-327.63
	2958	59.18	-8.43853E-002	5.08857E-009	0.00000E+000	-8.40000E-002	4.00910E-004	7	...........	-327.63
	2961	59.24	-7.84395E-002	5.05524E-009	0.00000E+000	-7.80000E-002	3.89243E-004	7	...........	-327.63
	2964	59.3	-7.24703E-002	5.41359E-009	0.00000E+000	-7.20000E-002	3.93410E-004	7	...........	-327.63
	2967	59.36	-6.64282E-002	5.56359E-009	0.00000E+000	-6.60000E-002	3.78410E-004	7	...........	-327.63
	2970	59.42	-6.01657E-002	5.59276E-009	0.00000E+000	-6.00000E-002	3.88410E-004	7	...........	-327.63
	2973	59.48	-5.40528E-002	6.04278E-009	0.00000E+000	-5.40000E-002	4.10910E-004	7	...........	-327.63
	2976	59.54	-4.79503E-002	6.23028E-009	0.00000E+000	-4.80000E-002	3.95910E-004	7	...........	-327.63
	2979	59.6	-4.26345E-002	6.68863E-009	0.00000E+000	-4.20000E-002	3.75076E-004	7	...........	-327.63
	2982	59.66	-3.66907E-002	6.92614E-009	0.00000E+000	-3.60000E-002	3.92576E-004	7	...........	-327.63
	2985	59.72	-3.07157E-002	6.98031E-009	0.00000E+000	-3.00000E-002	3.82576E-004	7	...........	-327.63
	2988	59.78	-2.39891E-002	7.12615E-009	0.00000E+000	-2.40000E-002	3.91743E-004	7	...........	-327.63
	2991	59.84	-1.86516E-002	7.73451E-009	0.00000E+000	-1.80000E-002	4.02576E-004	7	...........	-327.63
	2994	59.9	-1.28162E-002	8.00118E-009	0.00000E+000	-1.20000E-002	3.83410E-004	7	...........	-327.63
	2997	59.96	-6.87949E-003	8.22202E-009	0.00000E+000	-6.00000E-003	3.95910E-004	7	...........	-327.63
	3000	60.02	-9.30743E-004	8.53454E-009	0.00000E+000	0.00000E+000	3.89243E-004	7	...........	-327.63