File: Gamry/CV_fullWindow_noBuffer.DTA
EXPLAIN
TAG	CV
TITLE	LABEL	Cyclic Voltammetry	Test &Identifier
DATE	LABEL	5-12-2022	Date
TIME	LABEL	13:19:20	Time
NOTES	NOTES	1	&Notes...

PSTAT	PSTAT	REF3000-20110	Potentiostat
VINIT	POTEN	0.00000E+000	F	Initial &E (V)
VLIMIT1	POTEN	5.00000E-001	F	Scan Limit &1 (V)
VLIMIT2	POTEN	-5.00000E-001	F	Scan Limit &2 (V)
VFINAL	POTEN	0.00000E+000	F	Final &E (V)
SCANRATE	QUANT	9.99998E+001	&Scan Rate (mV/s)
STEPSIZE	QUANT	2.00000E+000	St&ep Size (mV)
CYCLES	IQUANT	3	C&ycles (#)
IMODE	SELECTOR	0	I/E Range &Mode
IRANGE	QUANT	3.00000E-001	&Max Current (mA)
AREA	QUANT	1.00000E+000	Electrode &Area (cm^2)
ELECTRODETYPE	SELECTOR	0	Electrode Type
STRIPPING	TOGGLE	F	Used for Stripping
CONDIT	TWOPARAM	F	1.50000E+001	0.00000E+000	Conditionin&g	Time(s)	E(V)
DELAY	TWOPARAM	F	3.00000E+001	0.00000E+000	Init. De&lay	Time(s)	Stab.(mV/s)
EQDELAY	QUANT	0.00000E+000	Equil. &Time (s)
IRCOMP	SELECTOR	0	IRCom&p
PFCOR	QUANT	5.00000E+001	PF Corr. (ohm)
SAMPLINGMODE	SELECTOR	1	Sampling &Mode
EOC	QUANT	0	Open Circuit (V)
PSTATMODEL	IQUANT	5	Pstat Model
PSTATSECTION	LABEL	REF3000-20110	Pstat Section
PSTATSERIALNO	LABEL	20110	Pstat Serial Number
CTRLMODE	IQUANT	1	Control Mode
ELECTROMETER	IQUANT	0	RE=0 or CS=1
IESTAB	IQUANT	2	I/E Stability
CASPEED	IQUANT	4	Control Amp Speed
CONVENTION	IQUANT	1	Current Convention
ICHRANGE	IQUANT	2	Ich Range
ICHRANGEMODE	TOGGLE	F	Ich Auto Range
ICHOFFSETENABLE	TOGGLE	F	Ich Offset Enable
ICHOFFSET	QUANT	0	Ich Offset (V)
ICHFILTER	IQUANT	2	Ich Filter
VCHRANGE	IQUANT	2	Vch Range
VCHRANGEMODE	TOGGLE	F	Vch Auto Range
VCHOFFSETENABLE	TOGGLE	F	Vch Offset Enable
VCHOFFSET	QUANT	0	Vch Offset (V)
VCHFILTER	IQUANT	2	Vch Filter
ACHRANGE	IQUANT	2	Ach Range
ACHOFFSETENABLE	TOGGLE	F	Ach Offset Enable
ACHOFFSET	QUANT	0	Ach Offset (V)
ACHFILTER	IQUANT	1	Ach Filter
IERANGELOWERLIMIT	IQUANT	2	I/E Range Lower Limit
IERANGEMODE	TOGGLE	T	I/E AutoRange
IERANGE	IQUANT	9	I/E Range
POSFEEDENABLE	TOGGLE	F	Positive Feedback IR Comp
POSFEEDRESISTANCE	QUANT	0	Positive Feedback Resistance (ohm)
ACHSELECT	IQUANT	4	Ach Select
SENSECABLEID	IQUANT	14	Sense Cable ID
PWRCABLEID	IQUANT	7	Power Cable ID
DCCALDATE	LABEL	8/9/2022	DC Calibration Date
ACCALDATE	LABEL	8/9/2022	AC Calibration Date
THERMOSELECT	IQUANT	1	Thermo Select
FRAMEWORKVERSION	LABEL	7.9.0	Framework Version
INSTRUMENTVERSION	LABEL	4.60	Instrument Version
COMPLIANCEVOLTAGE	IQUANT	0	Compliance Voltage
CURVE1	TABLE
	Pt	T	Vf	Im	Vu	Sig	Ach	IERange	Over	Temp
	#	s	V vs. Ref.	A	V	V	V	#	bits	deg C
	0	0.02	3.73681E-003	-9.90594E-008	0.00000E+000	0.00000E+000	7.50910E-004	9	...........	-327.63
	8	0.18	1.95655E-002	-9.75781E-009	0.00000E+000	1.60000E-002	7.39243E-004	7	...........	-327.63
	16	0.34	3.53384E-002	-9.62864E-009	0.00000E+000	3.20000E-002	7.35910E-004	7	...........	-327.63
	24	0.5	5.13980E-002	-9.90365E-009	0.00000E+000	4.80000E-002	7.21743E-004	7	...........	-327.63
	32	0.66	6.73713E-002	-1.00703E-008	0.00000E+000	6.40000E-002	7.61743E-004	7	...........	-327.63
	40	0.82	8.30701E-002	-1.01162E-008	0.00000E+000	8.00000E-002	7.46743E-004	7	...........	-327.63
	48	0.98	9.83763E-002	-9.81615E-009	0.00000E+000	9.60000E-002	7.16743E-004	7	...........	-327.63
	56	1.14	1.13970E-001	-9.81198E-009	0.00000E+000	1.12000E-001	7.44243E-004	7	...........	-327.63
	64	1.3	1.29234E-001	-9.73698E-009	0.00000E+000	1.28000E-001	7.18410E-004	7	...........	-327.63
	72	1.46	1.45165E-001	-9.53697E-009	0.00000E+000	1.44000E-001	7.69243E-004	7	...........	-327.63
	80	1.62	1.61139E-001	-9.32863E-009	0.00000E+000	1.60000E-001	7.35910E-004	7	...........	-327.63
	88	1.78	1.77113E-001	-8.96195E-009	0.00000E+000	1.76000E-001	7.53410E-004	7	...........	-327.63
	96	1.94	1.93037E-001	-8.94528E-009	0.00000E+000	1.92000E-001	7.42576E-004	7	...........	-327.63
	104	2.1	2.08911E-001	-8.79528E-009	0.00000E+000	2.08000E-001	7.25910E-004	7	...........	-327.63
	112	2.26	2.24792E-001	-8.50360E-009	0.00000E+000	2.24000E-001	7.41743E-004	7	...........	-327.63
	120	2.42	2.40728E-001	-8.29109E-009	0.00000E+000	2.40000E-001	7.35910E-004	7	...........	-327.63
	128	2.58	2.56624E-001	-8.07025E-009	0.00000E+000	2.56000E-001	7.31743E-004	7	...........	-327.63
	136	2.74	2.72534E-001	-7.54106E-009	0.00000E+000	2.72000E-001	7.76743E-004	7	...........	-327.63
	144	2.9	2.88430E-001	-7.07021E-009	0.00000E+000	2.88000E-001	7.52576E-004	7	...........	-327.63
	152	3.06	3.04411E-001	-6.56186E-009	0.00000E+000	3.04000E-001	7.65910E-004	7	...........	-327.63
	160	3.22	3.20256E-001	-6.15351E-009	0.00000E+000	3.20000E-001	7.40076E-004	7	...........	-327.63
	168	3.38	3.36147E-001	-5.47432E-009	0.00000E+000	3.36000E-001	7.47576E-004	7	...........	-327.63
	176	3.54	3.52048E-001	-4.46178E-009	0.00000E+000	3.52000E-001	7.42576E-004	7	...........	-327.63
	184	3.7	3.67910E-001	-3.82426E-009	0.00000E+000	3.68000E-001	7.33410E-004	7	...........	-327.63
	192	3.86	3.83800E-001	-3.14507E-009	0.00000E+000	3.84000E-001	7.37576E-004	7	...........	-327.63
	200	4.02	3.99710E-001	-2.41587E-009	0.00000E+000	4.00000E-001	7.52576E-004	7	...........	-327.63
	208	4.18	4.15566E-001	-1.96169E-009	0.00000E+000	4.16000E-001	7.46743E-004	7	...........	-327.63
	216	4.34	4.31487E-001	-1.51584E-009	0.00000E+000	4.32000E-001	7.38410E-004	7	...........	-327.63
	224	4.5	4.47377E-001	-7.78311E-010	0.00000E+000	4.48000E-001	7.35910E-004	7	...........	-327.63
	232	4.66	4.63281E-001	-1.44954E-010	0.00000E+000	4.64000E-001	7.58410E-004	7	...........	-327.63
	240	4.82	4.79179E-001	7.80081E-010	0.00000E+000	4.80000E-001	7.30076E-004	7	...........	-327.63
	248	4.98	4.95072E-001	1.45511E-009	0.00000E+000	4.96000E-001	7.50910E-004	7	...........	-327.63
	256	5.14	4.86991E-001	2.63432E-009	0.00000E+000	4.88000E-001	7.45910E-004	7	...........	-327.63
	264	5.3	4.70916E-001	3.36768E-009	0.00000E+000	4.72000E-001	7.40076E-004	7	...........	-327.63
	272	5.46	4.54848E-001	4.19687E-009	0.00000E+000	4.56000E-001	7.47576E-004	7	...........	-327.63
	280	5.62	4.38763E-001	4.78856E-009	0.00000E+000	4.40000E-001	7.31743E-004	7	...........	-327.63
	288	5.78	4.22678E-001	5.53442E-009	0.00000E+000	4.24000E-001	7.44243E-004	7	...........	-327.63
	296	5.94	4.06632E-001	6.39696E-009	0.00000E+000	4.08000E-001	7.56743E-004	7	...........	-327.63
	304	6.1	3.90552E-001	7.46783E-009	0.00000E+000	3.92000E-001	7.52576E-004	7	...........	-327.63
	312	6.26	3.74468E-001	8.31786E-009	0.00000E+000	3.76000E-001	7.51743E-004	7	...........	-327.63
	320	6.42	3.58370E-001	9.26373E-009	0.00000E+000	3.60000E-001	7.48410E-004	7	...........	-327.63
	328	6.58	3.42283E-001	1.01721E-008	0.00000E+000	3.44000E-001	7.54243E-004	7	...........	-327.63
	336	6.74	3.26220E-001	1.09388E-008	0.00000E+000	3.28000E-001	7.25910E-004	7	...........	-327.63
	344	6.9	3.10140E-001	1.19472E-008	0.00000E+000	3.12000E-001	7.44243E-004	7	...........	-327.63
	352	7.06	2.94103E-001	1.25597E-008	0.00000E+000	2.96000E-001	7.50076E-004	7	...........	-327.63
	360	7.22	2.78090E-001	1.31722E-008	0.00000E+000	2.80000E-001	7.51743E-004	7	...........	-327.63
	368	7.38	2.62040E-001	1.38139E-008	0.00000E+000	2.64000E-001	7.41743E-004	7	...........	-327.63
	376	7.54	2.46025E-001	1.44639E-008	0.00000E+000	2.48000E-001	7.35076E-004	7	...........	-327.63
	384	7.7	2.30014E-001	1.50848E-008	0.00000E+000	2.32000E-001	7.45910E-004	7	...........	-327.63
	392	7.86	2.14020E-001	1.56056E-008	0.00000E+000	2.16000E-001	7.55076E-004	7	...........	-327.63
	400	8.02	1.98056E-001	1.64598E-008	0.00000E+000	2.00000E-001	7.55076E-004	7	...........	-327.63
	408	8.18	1.82081E-001	1.68223E-008	0.00000E+000	1.84000E-001	7.45910E-004	7	...........	-327.63
	416	8.34	1.66111E-001	1.75224E-008	0.00000E+000	1.68000E-001	7.54243E-004	7	...........	-327.63
	424	8.5	1.50179E-001	1.81432E-008	0.00000E+000	1.52000E-001	7.24243E-004	7	...........	-327.63
	432	8.66	1.34251E-001	1.86266E-008	0.00000E+000	1.36000E-001	7.42576E-004	7	...........	-327.63
	440	8.82	1.18297E-001	1.91308E-008	0.00000E+000	1.20000E-001	7.45910E-004	7	...........	-327.63
	448	8.98	1.02385E-001	1.94099E-008	0.00000E+000	1.04000E-001	7.51743E-004	7	...........	-327.63
	456	9.14	8.64738E-002	1.95141E-008	0.00000E+000	8.80000E-002	7.44243E-004	7	...........	-327.63
	464	9.3	7.05917E-002	2.00141E-008	0.00000E+000	7.20000E-002	7.19243E-004	7	...........	-327.63
	472	9.46	5.46980E-002	2.01308E-008	0.00000E+000	5.60000E-002	7.51743E-004	7	...........	-327.63
	480	9.62	3.88155E-002	2.05600E-008	0.00000E+000	4.00000E-002	7.38410E-004	7	...........	-327.63
	488	9.78	2.29538E-002	2.05975E-008	0.00000E+000	2.40000E-002	7.50076E-004	7	...........	-327.63
	496	9.94	7.05217E-003	2.08017E-008	0.00000E+000	8.00000E-003	7.49243E-004	7	...........	-327.63
	504	10.1	-8.86199E-003	2.09350E-008	0.00000E+000	-8.00000E-003	7.47576E-004	7	...........	-327.63
	512	10.26	-2.47374E-002	2.09017E-008	0.00000E+000	-2.40000E-002	7.34243E-004	7	...........	-327.63
	520	10.42	-4.05966E-002	2.07892E-008	0.00000E+000	-4.00000E-002	7.37576E-004	7	...........	-327.63
	528	10.58	-5.64395E-002	2.08183E-008	0.00000E+000	-5.60000E-002	7.59243E-004	7	...........	-327.63
	536	10.74	-7.22874E-002	2.08100E-008	0.00000E+000	-7.20000E-002	7.48410E-004	7	...........	-327.63
	544	10.9	-8.81653E-002	2.07767E-008	0.00000E+000	-8.80000E-002	7.78410E-004	7	...........	-327.63
	552	11.06	-1.04017E-001	2.07642E-008	0.00000E+000	-1.04000E-001	7.35076E-004	7	...........	-327.63
	560	11.22	-1.19888E-001	2.05517E-008	0.00000E+000	-1.20000E-001	7.30910E-004	7	...........	-327.63
	568	11.38	-1.35793E-001	2.00016E-008	0.00000E+000	-1.36000E-001	7.50910E-004	7	...........	-327.63
	576	11.54	-1.51668E-001	1.97475E-008	0.00000E+000	-1.52000E-001	7.28410E-004	7	...........	-327.63
	584	11.7	-1.67534E-001	1.94349E-008	0.00000E+000	-1.68000E-001	7.56743E-004	7	...........	-327.63
	592	11.86	-1.83429E-001	1.90766E-008	0.00000E+000	-1.84000E-001	7.51743E-004	7	...........	-327.63
	600	12.02	-1.99340E-001	1.88433E-008	0.00000E+000	-2.00000E-001	7.45076E-004	7	...........	-327.63
	608	12.18	-2.15245E-001	1.86057E-008	0.00000E+000	-2.16000E-001	7.52576E-004	7	...........	-327.63
	616	12.34	-2.31151E-001	1.80807E-008	0.00000E+000	-2.32000E-001	7.50076E-004	7	...........	-327.63
	624	12.5	-2.47082E-001	1.75557E-008	0.00000E+000	-2.48000E-001	7.42576E-004	7	...........	-327.63
	632	12.66	-2.62985E-001	1.72474E-008	0.00000E+000	-2.64000E-001	7.42576E-004	7	...........	-327.63
	640	12.82	-2.78897E-001	1.72265E-008	0.00000E+000	-2.80000E-001	7.29243E-004	7	...........	-327.63
	648	12.98	-2.94810E-001	1.66598E-008	0.00000E+000	-2.96000E-001	7.38410E-004	7	...........	-327.63
	656	13.14	-3.10709E-001	1.62015E-008	0.00000E+000	-3.12000E-001	7.46743E-004	7	...........	-327.63
	664	13.3	-3.26624E-001	1.58515E-008	0.00000E+000	-3.28000E-001	7.30076E-004	7	...........	-327.63
	672	13.46	-3.42522E-001	1.54015E-008	0.00000E+000	-3.44000E-001	7.46743E-004	7	...........	-327.63
	680	13.62	-3.58434E-001	1.48723E-008	0.00000E+000	-3.60000E-001	7.37576E-004	7	...........	-327.63
	688	13.78	-3.74317E-001	1.45014E-008	0.00000E+000	-3.76000E-001	7.44243E-004	7	...........	-327.63
	696	13.94	-3.90196E-001	1.36681E-008	0.00000E+000	-3.92000E-001	7.50076E-004	7	...........	-327.63
	704	14.1	-4.06109E-001	1.29597E-008	0.00000E+000	-4.08000E-001	7.45076E-004	7	...........	-327.63
	712	14.26	-4.21972E-001	1.21888E-008	0.00000E+000	-4.24000E-001	7.65910E-004	7	...........	-327.63
	720	14.42	-4.37855E-001	1.15055E-008	0.00000E+000	-4.40000E-001	7.48410E-004	7	...........	-327.63
	728	14.58	-4.53785E-001	1.09805E-008	0.00000E+000	-4.56000E-001	7.38410E-004	7	...........	-327.63
	736	14.74	-4.69663E-001	1.05971E-008	0.00000E+000	-4.72000E-001	7.55076E-004	7	...........	-327.63
	744	14.9	-4.85569E-001	9.79708E-009	0.00000E+000	-4.88000E-001	7.29243E-004	7	...........	-327.63
	750	15.02	-4.97493E-001	9.62624E-009	0.00000E+000	-5.00000E-001	7.50076E-004	7	...........	-327.63
CURVE2	TABLE
	Pt	T	Vf	Im	Vu	Sig	Ach	IERange	Over	Temp
	#	s	V vs. Ref.	A	V	V	V	#	bits	deg C
	751	15.04	-4.95474E-001	9.56374E-009	0.00000E+000	-4.98000E-001	6.36743E-004	7	...........	-327.63
	761	15.24	-4.75396E-001	8.84288E-009	0.00000E+000	-4.78000E-001	6.40076E-004	7	...........	-327.63
	771	15.44	-4.55326E-001	7.78868E-009	0.00000E+000	-4.58000E-001	6.57576E-004	7	...........	-327.63
	781	15.64	-4.35229E-001	6.78864E-009	0.00000E+000	-4.38000E-001	6.61743E-004	7	...........	-327.63
	791	15.84	-4.15113E-001	5.82610E-009	0.00000E+000	-4.18000E-001	6.48410E-004	7	...........	-327.63
	801	16.04	-3.95040E-001	4.80523E-009	0.00000E+000	-3.98000E-001	6.60076E-004	7	...........	-327.63
	811	16.24	-3.74948E-001	4.15104E-009	0.00000E+000	-3.78000E-001	6.44243E-004	7	...........	-327.63
	821	16.44	-3.54874E-001	3.00933E-009	0.00000E+000	-3.58000E-001	6.49243E-004	7	...........	-327.63
	831	16.64	-3.34747E-001	1.70928E-009	0.00000E+000	-3.38000E-001	6.48410E-004	7	...........	-327.63
	841	16.84	-3.14639E-001	5.71740E-010	0.00000E+000	-3.18000E-001	6.75910E-004	7	...........	-327.63
	851	17.04	-2.94556E-001	-5.32836E-011	0.00000E+000	-2.98000E-001	6.43410E-004	7	...........	-327.63
	861	17.24	-2.74467E-001	-9.28316E-010	0.00000E+000	-2.78000E-001	6.43410E-004	7	...........	-327.63
	871	17.44	-2.54427E-001	-1.57834E-009	0.00000E+000	-2.58000E-001	6.38410E-004	7	...........	-327.63
	881	17.64	-2.34334E-001	-2.20753E-009	0.00000E+000	-2.38000E-001	6.70910E-004	7	...........	-327.63
	891	17.84	-2.14269E-001	-2.94506E-009	0.00000E+000	-2.18000E-001	6.50076E-004	7	...........	-327.63
	901	18.04	-1.94218E-001	-3.58258E-009	0.00000E+000	-1.98000E-001	6.45910E-004	7	...........	-327.63
	911	18.24	-1.74159E-001	-4.27011E-009	0.00000E+000	-1.78000E-001	6.41743E-004	7	...........	-327.63
	921	18.44	-1.54136E-001	-5.27848E-009	0.00000E+000	-1.58000E-001	6.56743E-004	7	...........	-327.63
	931	18.64	-1.34099E-001	-6.00767E-009	0.00000E+000	-1.38000E-001	6.37576E-004	7	...........	-327.63
	941	18.84	-1.14063E-001	-6.88687E-009	0.00000E+000	-1.18000E-001	6.58410E-004	7	...........	-327.63
	951	19.04	-9.40449E-002	-7.65357E-009	0.00000E+000	-9.80000E-002	6.44243E-004	7	...........	-327.63
	961	19.24	-7.40145E-002	-8.10775E-009	0.00000E+000	-7.80000E-002	6.45076E-004	7	...........	-327.63
	971	19.44	-5.40137E-002	-8.28692E-009	0.00000E+000	-5.80000E-002	6.43410E-004	7	...........	-327.63
	981	19.64	-3.40441E-002	-8.77861E-009	0.00000E+000	-3.80000E-002	6.47576E-004	7	...........	-327.63
	991	19.84	-1.40578E-002	-9.07445E-009	0.00000E+000	-1.80000E-002	6.48410E-004	7	...........	-327.63
	1001	20.04	5.90634E-003	-9.16196E-009	0.00000E+000	2.00000E-003	6.38410E-004	7	...........	-327.63
	1011	20.24	2.58851E-002	-9.51614E-009	0.00000E+000	2.20000E-002	6.47576E-004	7	...........	-327.63
	1021	20.44	4.58255E-002	-9.83282E-009	0.00000E+000	4.20000E-002	6.27576E-004	7	...........	-327.63
	1031	20.64	6.57643E-002	-1.00287E-008	0.00000E+000	6.20000E-002	6.47576E-004	7	...........	-327.63
	1041	20.84	8.56792E-002	-9.72864E-009	0.00000E+000	8.20000E-002	6.32576E-004	7	...........	-327.63
	1051	21.04	1.05551E-001	-9.86198E-009	0.00000E+000	1.02000E-001	6.29243E-004	7	...........	-327.63
	1061	21.24	1.25443E-001	-9.48697E-009	0.00000E+000	1.22000E-001	6.44243E-004	7	...........	-327.63
	1071	21.44	1.45331E-001	-9.73281E-009	0.00000E+000	1.42000E-001	4.46743E-004	7	...........	-327.63
	1081	21.64	1.65207E-001	-9.72031E-009	0.00000E+000	1.62000E-001	4.45076E-004	7	...........	-327.63
	1091	21.84	1.85085E-001	-9.64114E-009	0.00000E+000	1.82000E-001	4.40910E-004	7	...........	-327.63
	1101	22.04	2.04923E-001	-9.27446E-009	0.00000E+000	2.02000E-001	4.39243E-004	7	...........	-327.63
	1111	22.24	2.24803E-001	-9.02862E-009	0.00000E+000	2.22000E-001	4.39243E-004	7	...........	-327.63
	1121	22.44	2.44661E-001	-8.96612E-009	0.00000E+000	2.42000E-001	4.45910E-004	7	...........	-327.63
	1131	22.64	2.64478E-001	-8.39526E-009	0.00000E+000	2.62000E-001	4.57576E-004	7	...........	-327.63
	1141	22.84	2.84333E-001	-8.00775E-009	0.00000E+000	2.82000E-001	4.45076E-004	7	...........	-327.63
	1151	23.04	3.04173E-001	-7.55773E-009	0.00000E+000	3.02000E-001	4.40910E-004	7	...........	-327.63
	1161	23.24	3.23971E-001	-6.98271E-009	0.00000E+000	3.22000E-001	4.39243E-004	7	...........	-327.63
	1171	23.44	3.43791E-001	-6.69520E-009	0.00000E+000	3.42000E-001	4.57576E-004	7	...........	-327.63
	1181	23.64	3.63602E-001	-6.37435E-009	0.00000E+000	3.62000E-001	4.63410E-004	7	...........	-327.63
	1191	23.84	3.83419E-001	-5.76183E-009	0.00000E+000	3.82000E-001	4.60076E-004	7	...........	-327.63
	1201	24.04	4.03229E-001	-5.11597E-009	0.00000E+000	4.02000E-001	4.52576E-004	7	...........	-327.63
	1211	24.24	4.23008E-001	-4.33678E-009	0.00000E+000	4.22000E-001	4.50910E-004	7	...........	-327.63
	1221	24.44	4.42799E-001	-3.63258E-009	0.00000E+000	4.42000E-001	4.33410E-004	7	...........	-327.63
	1231	24.64	4.62593E-001	-2.49921E-009	0.00000E+000	4.62000E-001	4.40910E-004	7	...........	-327.63
	1241	24.84	4.82417E-001	-1.78251E-009	0.00000E+000	4.82000E-001	4.53410E-004	7	...........	-327.63
	1251	25.04	4.98234E-001	-1.00332E-009	0.00000E+000	4.98000E-001	4.32576E-004	7	...........	-327.63
	1261	25.24	4.78122E-001	-1.99122E-010	0.00000E+000	4.78000E-001	4.55076E-004	7	...........	-327.63
	1271	25.44	4.58034E-001	4.25901E-010	0.00000E+000	4.58000E-001	4.81743E-004	7	...........	-327.63
	1281	25.64	4.37926E-001	1.49261E-009	0.00000E+000	4.38000E-001	4.40910E-004	7	...........	-327.63
[...]
CURVE4	TABLE
	Pt	T	Vf	Im	Vu	Sig	Ach	IERange	Over	Temp
	#	s	V vs. Ref.	A	V	V	V	#	bits	deg C
	2751	55.04	-4.94248E-001	-5.46182E-009	0.00000E+000	-4.98000E-001	4.45076E-004	7	...........	-327.63
	2754	55.1	-4.88266E-001	-5.17431E-009	0.00000E+000	-4.92000E-001	4.35076E-004	7	...........	-327.63
	2757	55.16	-4.82281E-001	-5.21181E-009	0.00000E+000	-4.86000E-001	4.55076E-004	7	...........	-327.63
	2760	55.22	-4.76313E-001	-5.02430E-009	0.00000E+000	-4.80000E-001	4.55910E-004	7	...........	-327.63
	2763	55.28	-4.70327E-001	-4.91180E-009	0.00000E+000	-4.74000E-001	4.75910E-004	7	...........	-327.63
	2766	55.34	-4.64360E-001	-4.90763E-009	0.00000E+000	-4.68000E-001	4.53410E-004	7	...........	-327.63
	2769	55.4	-4.58397E-001	-4.69512E-009	0.00000E+000	-4.62000E-001	4.60910E-004	7	...........	-327.63
	2772	55.46	-4.52415E-001	-4.72846E-009	0.00000E+000	-4.56000E-001	4.45076E-004	7	...........	-327.63
	2775	55.52	-4.46427E-001	-4.48262E-009	0.00000E+000	-4.50000E-001	4.50076E-004	7	...........	-327.63
	2778	55.58	-4.40443E-001	-4.40345E-009	0.00000E+000	-4.44000E-001	4.51743E-004	7	...........	-327.63
	2781	55.64	-4.34474E-001	-4.41178E-009	0.00000E+000	-4.38000E-001	4.45076E-004	7	...........	-327.63
	2784	55.7	-4.28481E-001	-4.37011E-009	0.00000E+000	-4.32000E-001	4.30076E-004	7	...........	-327.63
	2787	55.76	-4.22503E-001	-4.12844E-009	0.00000E+000	-4.26000E-001	4.66743E-004	7	...........	-327.63
	2790	55.82	-4.16525E-001	-4.30344E-009	0.00000E+000	-4.20000E-001	4.75910E-004	7	...........	-327.63
	2793	55.88	-4.10532E-001	-3.93676E-009	0.00000E+000	-4.14000E-001	4.65076E-004	7	...........	-327.63
	2796	55.94	-4.04589E-001	-3.92843E-009	0.00000E+000	-4.08000E-001	4.64243E-004	7	...........	-327.63
	2799	56	-3.98608E-001	-3.54508E-009	0.00000E+000	-4.02000E-001	4.36743E-004	7	...........	-327.63
	2802	56.06	-3.92628E-001	-3.56591E-009	0.00000E+000	-3.96000E-001	4.39243E-004	7	...........	-327.63
	2805	56.12	-3.86635E-001	-3.40758E-009	0.00000E+000	-3.90000E-001	4.60076E-004	7	...........	-327.63
	2808	56.18	-3.80683E-001	-3.36591E-009	0.00000E+000	-3.84000E-001	4.16743E-004	7	...........	-327.63
	2811	56.24	-3.74701E-001	-3.44924E-009	0.00000E+000	-3.78000E-001	4.73410E-004	7	...........	-327.63
	2814	56.3	-3.68708E-001	-3.26590E-009	0.00000E+000	-3.72000E-001	4.48410E-004	7	...........	-327.63
	2817	56.36	-3.62732E-001	-3.29924E-009	0.00000E+000	-3.66000E-001	4.77576E-004	7	...........	-327.63
	2820	56.42	-3.56777E-001	-3.15757E-009	0.00000E+000	-3.60000E-001	4.53410E-004	7	...........	-327.63
	2823	56.48	-3.50790E-001	-2.93672E-009	0.00000E+000	-3.54000E-001	4.64243E-004	7	...........	-327.63
	2826	56.54	-3.44823E-001	-2.90756E-009	0.00000E+000	-3.48000E-001	4.40076E-004	7	...........	-327.63
	2829	56.6	-3.38850E-001	-2.61588E-009	0.00000E+000	-3.42000E-001	4.65910E-004	7	...........	-327.63
	2832	56.66	-3.32866E-001	-2.52004E-009	0.00000E+000	-3.36000E-001	4.19243E-004	7	...........	-327.63
	2835	56.72	-3.26885E-001	-2.42837E-009	0.00000E+000	-3.30000E-001	4.30076E-004	7	...........	-327.63
	2838	56.78	-3.20899E-001	-2.34920E-009	0.00000E+000	-3.24000E-001	4.48410E-004	7	...........	-327.63
	2841	56.84	-3.14933E-001	-2.28670E-009	0.00000E+000	-3.18000E-001	4.71743E-004	7	...........	-327.63
	2844	56.9	-3.08944E-001	-2.14086E-009	0.00000E+000	-3.12000E-001	4.70910E-004	7	...........	-327.63
	2847	56.96	-3.03007E-001	-2.02419E-009	0.00000E+000	-3.06000E-001	4.81743E-004	7	...........	-327.63
	2850	57.02	-2.97026E-001	-1.91585E-009	0.00000E+000	-3.00000E-001	4.80076E-004	7	...........	-327.63
	2853	57.08	-2.91038E-001	-1.64501E-009	0.00000E+000	-2.94000E-001	4.44243E-004	7	...........	-327.63
	2856	57.14	-2.85064E-001	-1.64084E-009	0.00000E+000	-2.88000E-001	4.41743E-004	7	...........	-327.63
	2859	57.2	-2.79090E-001	-1.37417E-009	0.00000E+000	-2.82000E-001	4.45076E-004	7	...........	-327.63
	2862	57.26	-2.73118E-001	-1.38667E-009	0.00000E+000	-2.76000E-001	4.55910E-004	7	...........	-327.63
	2865	57.32	-2.67137E-001	-1.35750E-009	0.00000E+000	-2.70000E-001	4.85910E-004	7	...........	-327.63
	2868	57.38	-2.61138E-001	-1.35750E-009	0.00000E+000	-2.64000E-001	4.48410E-004	7	...........	-327.63
	2871	57.44	-2.55179E-001	-1.10749E-009	0.00000E+000	-2.58000E-001	4.41743E-004	7	...........	-327.63
	2874	57.5	-2.49198E-001	-1.05749E-009	0.00000E+000	-2.52000E-001	4.48410E-004	7	...........	-327.63
	2877	57.56	-2.43202E-001	-1.06582E-009	0.00000E+000	-2.46000E-001	4.55910E-004	7	...........	-327.63
	2880	57.62	-2.37244E-001	-8.74148E-010	0.00000E+000	-2.40000E-001	4.56743E-004	7	...........	-327.63
	2883	57.68	-2.31271E-001	-8.11645E-010	0.00000E+000	-2.34000E-001	4.60910E-004	7	...........	-327.63
	2886	57.74	-2.25322E-001	-5.69970E-010	0.00000E+000	-2.28000E-001	4.46743E-004	7	...........	-327.63
	2889	57.8	-2.19327E-001	-3.74129E-010	0.00000E+000	-2.22000E-001	4.45910E-004	7	...........	-327.63
	2892	57.86	-2.13364E-001	-5.15801E-010	0.00000E+000	-2.16000E-001	4.63410E-004	7	...........	-327.63
	2895	57.92	-2.07364E-001	-5.69970E-010	0.00000E+000	-2.10000E-001	4.75910E-004	7	...........	-327.63
	2898	57.98	-2.01413E-001	-5.24135E-010	0.00000E+000	-2.04000E-001	4.71743E-004	7	...........	-327.63
	2901	58.04	-1.95429E-001	-4.28298E-010	0.00000E+000	-1.98000E-001	4.60910E-004	7	...........	-327.63
	2904	58.1	-1.89450E-001	-3.32461E-010	0.00000E+000	-1.92000E-001	4.78410E-004	7	...........	-327.63
	2907	58.16	-1.83462E-001	-9.91187E-011	0.00000E+000	-1.86000E-001	4.41743E-004	7	...........	-327.63
	2910	58.22	-1.77498E-001	1.30057E-010	0.00000E+000	-1.80000E-001	4.50076E-004	7	...........	-327.63
	2913	58.28	-1.71495E-001	2.67562E-010	0.00000E+000	-1.74000E-001	4.55076E-004	7	...........	-327.63
	2916	58.34	-1.65519E-001	1.92559E-010	0.00000E+000	-1.68000E-001	4.70910E-004	7	...........	-327.63
	2919	58.4	-1.59536E-001	4.30068E-010	0.00000E+000	-1.62000E-001	4.57576E-004	7	...........	-327.63
	2922	58.46	-1.53581E-001	7.46746E-010	0.00000E+000	-1.56000E-001	4.48410E-004	7	...........	-327.63
	2925	58.52	-1.47614E-001	6.92577E-010	0.00000E+000	-1.50000E-001	4.48410E-004	7	...........	-327.63
	2928	58.58	-1.41638E-001	7.09245E-010	0.00000E+000	-1.44000E-001	4.45076E-004	7	...........	-327.63
	2931	58.64	-1.35654E-001	8.88418E-010	0.00000E+000	-1.38000E-001	4.47576E-004	7	...........	-327.63
	2934	58.7	-1.29668E-001	8.59250E-010	0.00000E+000	-1.32000E-001	4.50076E-004	7	...........	-327.63
	2937	58.76	-1.23699E-001	9.96756E-010	0.00000E+000	-1.26000E-001	4.60076E-004	7	...........	-327.63
	2940	58.82	-1.17717E-001	9.21753E-010	0.00000E+000	-1.20000E-001	4.60076E-004	7	...........	-327.63
	2943	58.88	-1.11737E-001	1.18426E-009	0.00000E+000	-1.14000E-001	4.65910E-004	7	...........	-327.63
	2946	58.94	-1.05747E-001	1.44677E-009	0.00000E+000	-1.08000E-001	4.54243E-004	7	...........	-327.63
	2949	59	-9.97845E-002	1.36344E-009	0.00000E+000	-1.02000E-001	4.53410E-004	7	...........	-327.63
	2952	59.06	-9.38182E-002	1.43844E-009	0.00000E+000	-9.60000E-002	4.27576E-004	7	...........	-327.63
	2955	59.12	-8.78420E-002	1.52178E-009	0.00000E+000	-9.00000E-002	4.42576E-004	7	...........	-327.63
	2958	59.18	-8.18449E-002	1.70512E-009	0.00000E+000	-8.40000E-002	4.55076E-004	7	...........	-327.63
	2961	59.24	-7.58366E-002	1.75512E-009	0.00000E+000	-7.80000E-002	4.60910E-004	7	...........	-327.63
	2964	59.3	-6.98532E-002	1.99679E-009	0.00000E+000	-7.20000E-002	4.58410E-004	7	...........	-327.63
	2967	59.36	-6.38824E-002	2.10096E-009	0.00000E+000	-6.60000E-002	4.56743E-004	7	...........	-327.63
	2970	59.42	-5.78987E-002	2.32597E-009	0.00000E+000	-6.00000E-002	4.46743E-004	7	...........	-327.63
	2973	59.48	-5.19220E-002	2.49264E-009	0.00000E+000	-5.40000E-002	4.61743E-004	7	...........	-327.63
	2976	59.54	-4.59699E-002	2.40514E-009	0.00000E+000	-4.80000E-002	4.59243E-004	7	...........	-327.63
	2979	59.6	-3.99982E-002	2.78016E-009	0.00000E+000	-4.20000E-002	4.35910E-004	7	...........	-327.63
	2982	59.66	-3.40303E-002	2.88016E-009	0.00000E+000	-3.60000E-002	4.35910E-004	7	...........	-327.63
	2985	59.72	-2.80591E-002	2.88433E-009	0.00000E+000	-3.00000E-002	4.65076E-004	7	...........	-327.63
	2988	59.78	-2.20853E-002	3.01350E-009	0.00000E+000	-2.40000E-002	4.46743E-004	7	...........	-327.63
	2991	59.84	-1.61053E-002	3.30934E-009	0.00000E+000	-1.80000E-002	4.57576E-004	7	...........	-327.63
	2994	59.9	-1.01345E-002	3.46351E-009	0.00000E+000	-1.20000E-002	4.70910E-004	7	...........	-327.63
	2997	59.96	-4.16366E-003	3.63435E-009	0.00000E+000	-6.00000E-003	4.60910E-004	7	...........	-327.63
	3000	60.02	1.82634E-003	3.85936E-009	0.00000E+000	0.00000E+000	4.57576E-004	7	...........	-327.63