File: Gamry/CV_smallGrid_noBuffer_1.DTA
EXPLAIN
TAG	CV
TITLE	LABEL	Cyclic Voltammetry	Test &Identifier
DATE	LABEL	5-12-2022	Date
TIME	LABEL	13:09:27	Time
NOTES	NOTES	1	&Notes...

PSTAT	PSTAT	REF3000-20110	Potentiostat
VINIT	POTEN	0.00000E+000	F	Initial &E (V)
VLIMIT1	POTEN	5.00000E-001	F	Scan Limit &1 (V)
VLIMIT2	POTEN	-5.00000E-001	F	Scan Limit &2 (V)
VFINAL	POTEN	0.00000E+000	F	Final &E (V)
SCANRATE	QUANT	9.99998E+001	&Scan Rate (mV/s)
STEPSIZE	QUANT	2.00000E+000	St&ep Size (mV)
CYCLES	IQUANT	3	C&ycles (#)
IMODE	SELECTOR	0	I/E Range &Mode
IRANGE	QUANT	3.00000E-001	&Max Current (mA)
AREA	QUANT	1.00000E+000	Electrode &Area (cm^2)
ELECTRODETYPE	SELECTOR	0	Electrode Type
STRIPPING	TOGGLE	F	Used for Stripping
CONDIT	TWOPARAM	F	1.50000E+001	0.00000E+000	Conditionin&g	Time(s)	E(V)
DELAY	TWOPARAM	F	3.00000E+001	0.00000E+000	Init. De&lay	Time(s)	Stab.(mV/s)
EQDELAY	QUANT	0.00000E+000	Equil. &Time (s)
IRCOMP	SELECTOR	0	IRCom&p
PFCOR	QUANT	5.00000E+001	PF Corr. (ohm)
SAMPLINGMODE	SELECTOR	1	Sampling &Mode
EOC	QUANT	0	Open Circuit (V)
PSTATMODEL	IQUANT	5	Pstat Model
PSTATSECTION	LABEL	REF3000-20110	Pstat Section
PSTATSERIALNO	LABEL	20110	Pstat Serial Number
CTRLMODE	IQUANT	1	Control Mode
ELECTROMETER	IQUANT	0	RE=0 or CS=1
IESTAB	IQUANT	2	I/E Stability
CASPEED	IQUANT	4	Control Amp Speed
CONVENTION	IQUANT	1	Current Convention
ICHRANGE	IQUANT	2	Ich Range
ICHRANGEMODE	TOGGLE	F	Ich Auto Range
ICHOFFSETENABLE	TOGGLE	F	Ich Offset Enable
ICHOFFSET	QUANT	0	Ich Offset (V)
ICHFILTER	IQUANT	2	Ich Filter
VCHRANGE	IQUANT	2	Vch Range
VCHRANGEMODE	TOGGLE	F	Vch Auto Range
VCHOFFSETENABLE	TOGGLE	F	Vch Offset Enable
VCHOFFSET	QUANT	0	Vch Offset (V)
VCHFILTER	IQUANT	2	Vch Filter
ACHRANGE	IQUANT	2	Ach Range
ACHOFFSETENABLE	TOGGLE	F	Ach Offset Enable
ACHOFFSET	QUANT	0	Ach Offset (V)
ACHFILTER	IQUANT	1	Ach Filter
IERANGELOWERLIMIT	IQUANT	2	I/E Range Lower Limit
IERANGEMODE	TOGGLE	T	I/E AutoRange
IERANGE	IQUANT	9	I/E Range
POSFEEDENABLE	TOGGLE	F	Positive Feedback IR Comp
POSFEEDRESISTANCE	QUANT	0	Positive Feedback Resistance (ohm)
ACHSELECT	IQUANT	4	Ach Select
SENSECABLEID	IQUANT	14	Sense Cable ID
PWRCABLEID	IQUANT	7	Power Cable ID
DCCALDATE	LABEL	8/9/2022	DC Calibration Date
ACCALDATE	LABEL	8/9/2022	AC Calibration Date
THERMOSELECT	IQUANT	1	Thermo Select
FRAMEWORKVERSION	LABEL	7.9.0	Framework Version
INSTRUMENTVERSION	LABEL	4.60	Instrument Version
COMPLIANCEVOLTAGE	IQUANT	0	Compliance Voltage
CURVE1	TABLE
	Pt	T	Vf	Im	Vu	Sig	Ach	IERange	Over	Temp
	#	s	V vs. Ref.	A	V	V	V	#	bits	deg C
	0	0.02	-4.40686E-004	-1.31246E-007	0.00000E+000	0.00000E+000	7.81743E-004	9	...........	-327.63
	8	0.18	1.55234E-002	1.74682E-008	0.00000E+000	1.60000E-002	7.78410E-004	7	...........	-327.63
	16	0.34	3.14834E-002	1.74765E-008	0.00000E+000	3.20000E-002	7.95076E-004	7	...........	-327.63
	24	0.5	4.73397E-002	1.76682E-008	0.00000E+000	4.80000E-002	8.06743E-004	7	...........	-327.63
	32	0.66	6.31959E-002	1.74224E-008	0.00000E+000	6.40000E-002	8.05076E-004	7	...........	-327.63
	40	0.82	7.86630E-002	1.72932E-008	0.00000E+000	8.00000E-002	8.01743E-004	7	...........	-327.63
	48	0.98	9.44742E-002	1.72974E-008	0.00000E+000	9.60000E-002	7.93410E-004	7	...........	-327.63
	56	1.14	1.10829E-001	1.75515E-008	0.00000E+000	1.12000E-001	7.80076E-004	7	...........	-327.63
	64	1.3	1.26885E-001	1.77390E-008	0.00000E+000	1.28000E-001	7.88410E-004	7	...........	-327.63
	72	1.46	1.42704E-001	1.77640E-008	0.00000E+000	1.44000E-001	7.81743E-004	7	...........	-327.63
	80	1.62	1.58618E-001	1.79099E-008	0.00000E+000	1.60000E-001	8.06743E-004	7	...........	-327.63
	88	1.78	1.74449E-001	1.80224E-008	0.00000E+000	1.76000E-001	8.05076E-004	7	...........	-327.63
	96	1.94	1.90332E-001	1.75724E-008	0.00000E+000	1.92000E-001	7.93410E-004	7	...........	-327.63
	104	2.1	2.06240E-001	1.79141E-008	0.00000E+000	2.08000E-001	7.90076E-004	7	...........	-327.63
	112	2.26	2.21853E-001	1.81016E-008	0.00000E+000	2.24000E-001	7.93410E-004	7	...........	-327.63
	120	2.42	2.38110E-001	1.78599E-008	0.00000E+000	2.40000E-001	8.00076E-004	7	...........	-327.63
	128	2.58	2.54206E-001	1.81807E-008	0.00000E+000	2.56000E-001	8.10076E-004	7	...........	-327.63
	136	2.74	2.69998E-001	1.80432E-008	0.00000E+000	2.72000E-001	7.66743E-004	7	...........	-327.63
	144	2.9	2.86007E-001	1.80766E-008	0.00000E+000	2.88000E-001	8.16743E-004	7	...........	-327.63
	152	3.06	3.01926E-001	1.81016E-008	0.00000E+000	3.04000E-001	8.11743E-004	7	...........	-327.63
	160	3.22	3.17861E-001	1.82266E-008	0.00000E+000	3.20000E-001	7.91743E-004	7	...........	-327.63
	168	3.38	3.33821E-001	1.80599E-008	0.00000E+000	3.36000E-001	8.00076E-004	7	...........	-327.63
	176	3.54	3.49691E-001	1.81391E-008	0.00000E+000	3.52000E-001	8.08410E-004	7	...........	-327.63
	184	3.7	3.65312E-001	1.81682E-008	0.00000E+000	3.68000E-001	7.91743E-004	7	...........	-327.63
	192	3.86	3.81244E-001	1.81932E-008	0.00000E+000	3.84000E-001	7.81743E-004	7	...........	-327.63
	200	4.02	3.97254E-001	1.79891E-008	0.00000E+000	4.00000E-001	8.10076E-004	7	...........	-327.63
	208	4.18	4.13506E-001	1.81557E-008	0.00000E+000	4.16000E-001	7.93410E-004	7	...........	-327.63
	216	4.34	4.29230E-001	1.81182E-008	0.00000E+000	4.32000E-001	7.86743E-004	7	...........	-327.63
	224	4.5	4.45213E-001	1.79307E-008	0.00000E+000	4.48000E-001	8.00076E-004	7	...........	-327.63
	232	4.66	4.61531E-001	1.82057E-008	0.00000E+000	4.64000E-001	8.11743E-004	7	...........	-327.63
	240	4.82	4.77143E-001	1.78599E-008	0.00000E+000	4.80000E-001	8.03410E-004	7	...........	-327.63
	248	4.98	4.93141E-001	1.81016E-008	0.00000E+000	4.96000E-001	8.03410E-004	7	...........	-327.63
	256	5.14	4.85501E-001	1.81766E-008	0.00000E+000	4.88000E-001	7.96743E-004	7	...........	-327.63
	264	5.3	4.69218E-001	1.81141E-008	0.00000E+000	4.72000E-001	8.11743E-004	7	...........	-327.63
	272	5.46	4.53189E-001	1.80057E-008	0.00000E+000	4.56000E-001	8.05076E-004	7	...........	-327.63
	280	5.62	4.37531E-001	1.80224E-008	0.00000E+000	4.40000E-001	7.63410E-004	7	...........	-327.63
	288	5.78	4.21277E-001	1.78349E-008	0.00000E+000	4.24000E-001	7.88410E-004	7	...........	-327.63
	296	5.94	4.05293E-001	1.77765E-008	0.00000E+000	4.08000E-001	8.05076E-004	7	...........	-327.63
	304	6.1	3.89620E-001	1.76599E-008	0.00000E+000	3.92000E-001	7.95076E-004	7	...........	-327.63
	312	6.26	3.73325E-001	1.76890E-008	0.00000E+000	3.76000E-001	8.06743E-004	7	...........	-327.63
	320	6.42	3.57414E-001	1.76057E-008	0.00000E+000	3.60000E-001	7.93410E-004	7	...........	-327.63
	328	6.58	3.41590E-001	1.78724E-008	0.00000E+000	3.44000E-001	7.85076E-004	7	...........	-327.63
	336	6.74	3.25436E-001	1.78057E-008	0.00000E+000	3.28000E-001	7.92576E-004	7	...........	-327.63
	344	6.9	3.09467E-001	1.76057E-008	0.00000E+000	3.12000E-001	8.20076E-004	7	...........	-327.63
	352	7.06	2.93711E-001	1.77974E-008	0.00000E+000	2.96000E-001	8.15076E-004	7	...........	-327.63
	360	7.22	2.77738E-001	1.77015E-008	0.00000E+000	2.80000E-001	8.00076E-004	7	...........	-327.63
	368	7.38	2.61748E-001	1.77724E-008	0.00000E+000	2.64000E-001	7.80076E-004	7	...........	-327.63
	376	7.54	2.45711E-001	1.77640E-008	0.00000E+000	2.48000E-001	8.01743E-004	7	...........	-327.63
	384	7.7	2.29820E-001	1.76557E-008	0.00000E+000	2.32000E-001	8.06743E-004	7	...........	-327.63
	392	7.86	2.13817E-001	1.76807E-008	0.00000E+000	2.16000E-001	7.98410E-004	7	...........	-327.63
	400	8.02	1.97593E-001	1.74724E-008	0.00000E+000	2.00000E-001	8.18410E-004	7	...........	-327.63
	408	8.18	1.81594E-001	1.75265E-008	0.00000E+000	1.84000E-001	7.96743E-004	7	...........	-327.63
	416	8.34	1.65586E-001	1.77265E-008	0.00000E+000	1.68000E-001	8.11743E-004	7	...........	-327.63
	424	8.5	1.49813E-001	1.71557E-008	0.00000E+000	1.52000E-001	8.20076E-004	7	...........	-327.63
	432	8.66	1.33762E-001	1.72974E-008	0.00000E+000	1.36000E-001	8.15076E-004	7	...........	-327.63
	440	8.82	1.17951E-001	1.76015E-008	0.00000E+000	1.20000E-001	8.13410E-004	7	...........	-327.63
	448	8.98	1.02081E-001	1.73099E-008	0.00000E+000	1.04000E-001	7.90910E-004	7	...........	-327.63
	456	9.14	8.60568E-002	1.73390E-008	0.00000E+000	8.80000E-002	8.01743E-004	7	...........	-327.63
	464	9.3	7.00309E-002	1.73474E-008	0.00000E+000	7.20000E-002	7.96743E-004	7	...........	-327.63
	472	9.46	5.40580E-002	1.73140E-008	0.00000E+000	5.60000E-002	7.90076E-004	7	...........	-327.63
	480	9.62	3.80738E-002	1.70682E-008	0.00000E+000	4.00000E-002	7.88410E-004	7	...........	-327.63
	488	9.78	2.20859E-002	1.69974E-008	0.00000E+000	2.40000E-002	8.11743E-004	7	...........	-327.63
	496	9.94	6.09259E-003	1.72140E-008	0.00000E+000	8.00000E-003	8.06743E-004	7	...........	-327.63
	504	10.1	-1.00020E-002	1.70265E-008	0.00000E+000	-8.00000E-003	7.80076E-004	7	...........	-327.63
	512	10.26	-2.59078E-002	1.71474E-008	0.00000E+000	-2.40000E-002	8.13410E-004	7	...........	-327.63
	520	10.42	-4.18895E-002	1.69640E-008	0.00000E+000	-4.00000E-002	7.88410E-004	7	...........	-327.63
	528	10.58	-5.79028E-002	1.70099E-008	0.00000E+000	-5.60000E-002	7.86743E-004	7	...........	-327.63
	536	10.74	-7.38541E-002	1.70265E-008	0.00000E+000	-7.20000E-002	8.16743E-004	7	...........	-327.63
	544	10.9	-8.98595E-002	1.71599E-008	0.00000E+000	-8.80000E-002	8.10076E-004	7	...........	-327.63
	552	11.06	-1.05807E-001	1.70140E-008	0.00000E+000	-1.04000E-001	7.81743E-004	7	...........	-327.63
	560	11.22	-1.21802E-001	1.71015E-008	0.00000E+000	-1.20000E-001	7.98410E-004	7	...........	-327.63
	568	11.38	-1.37864E-001	1.69515E-008	0.00000E+000	-1.36000E-001	7.61743E-004	7	...........	-327.63
	576	11.54	-1.53764E-001	1.70807E-008	0.00000E+000	-1.52000E-001	8.11743E-004	7	...........	-327.63
	584	11.7	-1.69748E-001	1.68807E-008	0.00000E+000	-1.68000E-001	7.95076E-004	7	...........	-327.63
	592	11.86	-1.85771E-001	1.70640E-008	0.00000E+000	-1.84000E-001	7.96743E-004	7	...........	-327.63
	600	12.02	-2.01760E-001	1.70390E-008	0.00000E+000	-2.00000E-001	7.76743E-004	7	...........	-327.63
	608	12.18	-2.17714E-001	1.70099E-008	0.00000E+000	-2.16000E-001	8.23410E-004	7	...........	-327.63
	616	12.34	-2.33735E-001	1.72224E-008	0.00000E+000	-2.32000E-001	8.05910E-004	7	...........	-327.63
	624	12.5	-2.49698E-001	1.72599E-008	0.00000E+000	-2.48000E-001	7.93410E-004	7	...........	-327.63
	632	12.66	-2.65740E-001	1.73265E-008	0.00000E+000	-2.64000E-001	7.75076E-004	7	...........	-327.63
	640	12.82	-2.81657E-001	1.74015E-008	0.00000E+000	-2.80000E-001	8.06743E-004	7	...........	-327.63
	648	12.98	-2.97649E-001	1.72765E-008	0.00000E+000	-2.96000E-001	8.11743E-004	7	...........	-327.63
	656	13.14	-3.13642E-001	1.72724E-008	0.00000E+000	-3.12000E-001	7.93410E-004	7	...........	-327.63
	664	13.3	-3.29618E-001	1.76599E-008	0.00000E+000	-3.28000E-001	7.91743E-004	7	...........	-327.63
	672	13.46	-3.45627E-001	1.77182E-008	0.00000E+000	-3.44000E-001	8.01743E-004	7	...........	-327.63
	680	13.62	-3.61598E-001	1.77265E-008	0.00000E+000	-3.60000E-001	7.93410E-004	7	...........	-327.63
	688	13.78	-3.77579E-001	1.77057E-008	0.00000E+000	-3.76000E-001	7.68410E-004	7	...........	-327.63
	696	13.94	-3.93618E-001	1.78265E-008	0.00000E+000	-3.92000E-001	7.85076E-004	7	...........	-327.63
	704	14.1	-4.09563E-001	1.76682E-008	0.00000E+000	-4.08000E-001	7.95076E-004	7	...........	-327.63
	712	14.26	-4.25528E-001	1.75765E-008	0.00000E+000	-4.24000E-001	8.05076E-004	7	...........	-327.63
	720	14.42	-4.41540E-001	1.77557E-008	0.00000E+000	-4.40000E-001	7.93410E-004	7	...........	-327.63
	728	14.58	-4.57523E-001	1.75140E-008	0.00000E+000	-4.56000E-001	8.05076E-004	7	...........	-327.63
	736	14.74	-4.73536E-001	1.77974E-008	0.00000E+000	-4.72000E-001	7.95076E-004	7	...........	-327.63
	744	14.9	-4.89494E-001	1.74974E-008	0.00000E+000	-4.88000E-001	8.01743E-004	7	...........	-327.63
	750	15.02	-5.01474E-001	1.75474E-008	0.00000E+000	-5.00000E-001	8.20076E-004	7	...........	-327.63
CURVE2	TABLE
	Pt	T	Vf	Im	Vu	Sig	Ach	IERange	Over	Temp
	#	s	V vs. Ref.	A	V	V	V	#	bits	deg C
	751	15.04	-4.99510E-001	1.76974E-008	0.00000E+000	-4.98000E-001	6.68410E-004	7	...........	-327.63
	761	15.24	-4.79522E-001	1.75682E-008	0.00000E+000	-4.78000E-001	6.73410E-004	7	...........	-327.63
	771	15.44	-4.59592E-001	1.77849E-008	0.00000E+000	-4.58000E-001	6.75076E-004	7	...........	-327.63
	781	15.64	-4.39623E-001	1.77057E-008	0.00000E+000	-4.38000E-001	6.71743E-004	7	...........	-327.63
	791	15.84	-4.19719E-001	1.79016E-008	0.00000E+000	-4.18000E-001	6.66743E-004	7	...........	-327.63
	801	16.04	-3.99699E-001	1.80266E-008	0.00000E+000	-3.98000E-001	6.70076E-004	7	...........	-327.63
	811	16.24	-3.79745E-001	1.80807E-008	0.00000E+000	-3.78000E-001	6.66743E-004	7	...........	-327.63
	821	16.44	-3.59784E-001	1.82474E-008	0.00000E+000	-3.58000E-001	6.73410E-004	7	...........	-327.63
	831	16.64	-3.39844E-001	1.86349E-008	0.00000E+000	-3.38000E-001	6.78410E-004	7	...........	-327.63
	841	16.84	-3.19881E-001	1.84516E-008	0.00000E+000	-3.18000E-001	6.75076E-004	7	...........	-327.63
	851	17.04	-2.99918E-001	1.83891E-008	0.00000E+000	-2.98000E-001	6.80076E-004	7	...........	-327.63
	861	17.24	-2.79981E-001	1.84974E-008	0.00000E+000	-2.78000E-001	6.76743E-004	7	...........	-327.63
	871	17.44	-2.60007E-001	1.88349E-008	0.00000E+000	-2.58000E-001	6.86743E-004	7	...........	-327.63
	881	17.64	-2.40102E-001	1.88349E-008	0.00000E+000	-2.38000E-001	6.60076E-004	7	...........	-327.63
	891	17.84	-2.20072E-001	1.88974E-008	0.00000E+000	-2.18000E-001	6.91743E-004	7	...........	-327.63
	901	18.04	-2.00112E-001	1.89849E-008	0.00000E+000	-1.98000E-001	6.76743E-004	7	...........	-327.63
	911	18.24	-1.80159E-001	1.89058E-008	0.00000E+000	-1.78000E-001	6.81743E-004	7	...........	-327.63
	921	18.44	-1.60210E-001	1.91641E-008	0.00000E+000	-1.58000E-001	6.85076E-004	7	...........	-327.63
	931	18.64	-1.40292E-001	1.91516E-008	0.00000E+000	-1.38000E-001	6.71743E-004	7	...........	-327.63
	941	18.84	-1.20269E-001	1.90808E-008	0.00000E+000	-1.18000E-001	6.73410E-004	7	...........	-327.63
	951	19.04	-1.00329E-001	1.90849E-008	0.00000E+000	-9.80000E-002	6.75076E-004	7	...........	-327.63
	961	19.24	-8.03487E-002	1.91391E-008	0.00000E+000	-7.80000E-002	6.68410E-004	7	...........	-327.63
	971	19.44	-6.04682E-002	1.92016E-008	0.00000E+000	-5.80000E-002	6.75076E-004	7	...........	-327.63
	981	19.64	-4.04474E-002	1.94849E-008	0.00000E+000	-3.80000E-002	6.60076E-004	7	...........	-327.63
	991	19.84	-2.05191E-002	1.93766E-008	0.00000E+000	-1.80000E-002	6.61743E-004	7	...........	-327.63
	1001	20.04	-5.69077E-004	1.93683E-008	0.00000E+000	2.00000E-003	6.61743E-004	7	...........	-327.63
	1011	20.24	1.94334E-002	1.89891E-008	0.00000E+000	2.20000E-002	6.75076E-004	7	...........	-327.63
	1021	20.44	3.92951E-002	1.93391E-008	0.00000E+000	4.20000E-002	6.70076E-004	7	...........	-327.63
	1031	20.64	5.93647E-002	1.90974E-008	0.00000E+000	6.20000E-002	6.73410E-004	7	...........	-327.63
	1041	20.84	7.93530E-002	1.94308E-008	0.00000E+000	8.20000E-002	6.76743E-004	7	...........	-327.63
	1051	21.04	9.92926E-002	1.95766E-008	0.00000E+000	1.02000E-001	6.81743E-004	7	...........	-327.63
	1061	21.24	1.19260E-001	1.93724E-008	0.00000E+000	1.22000E-001	6.68410E-004	7	...........	-327.63
	1071	21.44	1.39281E-001	1.94474E-008	0.00000E+000	1.42000E-001	4.75076E-004	7	...........	-327.63
	1081	21.64	1.59246E-001	1.95474E-008	0.00000E+000	1.62000E-001	4.76743E-004	7	...........	-327.63
	1091	21.84	1.79227E-001	1.93849E-008	0.00000E+000	1.82000E-001	4.83410E-004	7	...........	-327.63
	1101	22.04	1.99176E-001	1.94099E-008	0.00000E+000	2.02000E-001	4.58410E-004	7	...........	-327.63
	1111	22.24	2.19066E-001	1.95433E-008	0.00000E+000	2.22000E-001	4.56743E-004	7	...........	-327.63
	1121	22.44	2.39148E-001	1.96225E-008	0.00000E+000	2.42000E-001	4.86743E-004	7	...........	-327.63
	1131	22.64	2.59104E-001	1.93266E-008	0.00000E+000	2.62000E-001	4.81743E-004	7	...........	-327.63
	1141	22.84	2.79070E-001	1.95224E-008	0.00000E+000	2.82000E-001	4.98410E-004	7	...........	-327.63
	1151	23.04	2.99014E-001	1.94849E-008	0.00000E+000	3.02000E-001	4.78410E-004	7	...........	-327.63
	1161	23.24	3.19036E-001	1.95058E-008	0.00000E+000	3.22000E-001	4.65076E-004	7	...........	-327.63
	1171	23.44	3.38999E-001	1.92558E-008	0.00000E+000	3.42000E-001	4.83410E-004	7	...........	-327.63
	1181	23.64	3.58953E-001	1.92974E-008	0.00000E+000	3.62000E-001	4.86743E-004	7	...........	-327.63
	1191	23.84	3.78913E-001	1.92933E-008	0.00000E+000	3.82000E-001	4.93410E-004	7	...........	-327.63
	1201	24.04	3.98809E-001	1.93891E-008	0.00000E+000	4.02000E-001	5.11743E-004	7	...........	-327.63
	1211	24.24	4.18888E-001	1.92474E-008	0.00000E+000	4.22000E-001	4.81743E-004	7	...........	-327.63
	1221	24.44	4.38856E-001	1.89974E-008	0.00000E+000	4.42000E-001	4.95076E-004	7	...........	-327.63
	1231	24.64	4.58839E-001	1.91933E-008	0.00000E+000	4.62000E-001	4.93410E-004	7	...........	-327.63
	1241	24.84	4.78754E-001	1.92349E-008	0.00000E+000	4.82000E-001	5.13410E-004	7	...........	-327.63
	1251	25.04	4.94781E-001	1.87349E-008	0.00000E+000	4.98000E-001	4.86743E-004	7	...........	-327.63
	1261	25.24	4.74649E-001	1.89349E-008	0.00000E+000	4.78000E-001	4.75076E-004	7	...........	-327.63
	1271	25.44	4.54818E-001	1.88016E-008	0.00000E+000	4.58000E-001	5.06743E-004	7	...........	-327.63
	1281	25.64	4.34860E-001	1.90516E-008	0.00000E+000	4.38000E-001	4.98410E-004	7	...........	-327.63
	1291	25.84	4.14885E-001	1.89933E-008	0.00000E+000	4.18000E-001	4.93410E-004	7	...........	-327.63
[...]
	2750	55.02	-5.01916E-001	1.95808E-008	0.00000E+000	-5.00000E-001	4.95076E-004	7	...........	-327.63
CURVE4	TABLE
	Pt	T	Vf	Im	Vu	Sig	Ach	IERange	Over	Temp
	#	s	V vs. Ref.	A	V	V	V	#	bits	deg C
	2751	55.04	-4.99932E-001	1.96516E-008	0.00000E+000	-4.98000E-001	5.08410E-004	7	...........	-327.63
	2754	55.1	-4.93982E-001	1.94224E-008	0.00000E+000	-4.92000E-001	5.06743E-004	7	...........	-327.63
	2757	55.16	-4.87957E-001	1.96141E-008	0.00000E+000	-4.86000E-001	5.08410E-004	7	...........	-327.63
	2760	55.22	-4.81917E-001	1.94099E-008	0.00000E+000	-4.80000E-001	5.08410E-004	7	...........	-327.63
	2763	55.28	-4.75929E-001	1.97141E-008	0.00000E+000	-4.74000E-001	5.31743E-004	7	...........	-327.63
	2766	55.34	-4.70039E-001	1.96766E-008	0.00000E+000	-4.68000E-001	5.33410E-004	7	...........	-327.63
	2769	55.4	-4.63992E-001	1.94849E-008	0.00000E+000	-4.62000E-001	4.93410E-004	7	...........	-327.63
	2772	55.46	-4.57987E-001	1.95183E-008	0.00000E+000	-4.56000E-001	5.03410E-004	7	...........	-327.63
	2775	55.52	-4.51990E-001	1.97516E-008	0.00000E+000	-4.50000E-001	5.11743E-004	7	...........	-327.63
	2778	55.58	-4.46109E-001	1.96725E-008	0.00000E+000	-4.44000E-001	5.28410E-004	7	...........	-327.63
	2781	55.64	-4.40054E-001	1.95766E-008	0.00000E+000	-4.38000E-001	5.20076E-004	7	...........	-327.63
	2784	55.7	-4.34030E-001	1.94558E-008	0.00000E+000	-4.32000E-001	4.96743E-004	7	...........	-327.63
	2787	55.76	-4.27989E-001	1.94016E-008	0.00000E+000	-4.26000E-001	5.23410E-004	7	...........	-327.63
	2790	55.82	-4.22043E-001	1.94349E-008	0.00000E+000	-4.20000E-001	5.03410E-004	7	...........	-327.63
	2793	55.88	-4.16064E-001	1.93391E-008	0.00000E+000	-4.14000E-001	5.16743E-004	7	...........	-327.63
	2796	55.94	-4.10056E-001	1.95516E-008	0.00000E+000	-4.08000E-001	5.05076E-004	7	...........	-327.63
	2799	56	-4.04088E-001	1.94974E-008	0.00000E+000	-4.02000E-001	5.18410E-004	7	...........	-327.63
	2802	56.06	-3.98083E-001	1.95058E-008	0.00000E+000	-3.96000E-001	5.20076E-004	7	...........	-327.63
	2805	56.12	-3.92129E-001	1.92391E-008	0.00000E+000	-3.90000E-001	5.11743E-004	7	...........	-327.63
	2808	56.18	-3.86095E-001	1.94433E-008	0.00000E+000	-3.84000E-001	5.26743E-004	7	...........	-327.63
	2811	56.24	-3.80106E-001	1.93766E-008	0.00000E+000	-3.78000E-001	5.23410E-004	7	...........	-327.63
	2814	56.3	-3.74066E-001	1.95433E-008	0.00000E+000	-3.72000E-001	5.30076E-004	7	...........	-327.63
	2817	56.36	-3.68179E-001	1.96349E-008	0.00000E+000	-3.66000E-001	5.28410E-004	7	...........	-327.63
	2820	56.42	-3.62136E-001	1.95016E-008	0.00000E+000	-3.60000E-001	5.00076E-004	7	...........	-327.63
	2823	56.48	-3.56162E-001	1.95433E-008	0.00000E+000	-3.54000E-001	5.16743E-004	7	...........	-327.63
	2826	56.54	-3.50135E-001	1.96266E-008	0.00000E+000	-3.48000E-001	5.11743E-004	7	...........	-327.63
	2829	56.6	-3.44230E-001	1.97850E-008	0.00000E+000	-3.42000E-001	4.91743E-004	7	...........	-327.63
	2832	56.66	-3.38198E-001	1.97391E-008	0.00000E+000	-3.36000E-001	5.05076E-004	7	...........	-327.63
	2835	56.72	-3.32200E-001	1.96933E-008	0.00000E+000	-3.30000E-001	5.10076E-004	7	...........	-327.63
	2838	56.78	-3.26155E-001	1.93558E-008	0.00000E+000	-3.24000E-001	5.13410E-004	7	...........	-327.63
	2841	56.84	-3.20168E-001	1.96141E-008	0.00000E+000	-3.18000E-001	5.06743E-004	7	...........	-327.63
	2844	56.9	-3.14267E-001	1.96600E-008	0.00000E+000	-3.12000E-001	5.00076E-004	7	...........	-327.63
	2847	56.96	-3.08194E-001	1.96808E-008	0.00000E+000	-3.06000E-001	5.10076E-004	7	...........	-327.63
	2850	57.02	-3.02219E-001	1.94974E-008	0.00000E+000	-3.00000E-001	5.28410E-004	7	...........	-327.63
	2853	57.08	-2.96212E-001	1.96308E-008	0.00000E+000	-2.94000E-001	5.25076E-004	7	...........	-327.63
	2856	57.14	-2.90333E-001	1.97183E-008	0.00000E+000	-2.88000E-001	4.90076E-004	7	...........	-327.63
	2859	57.2	-2.84246E-001	1.96683E-008	0.00000E+000	-2.82000E-001	5.10076E-004	7	...........	-327.63
	2862	57.26	-2.78231E-001	1.96266E-008	0.00000E+000	-2.76000E-001	5.20076E-004	7	...........	-327.63
	2865	57.32	-2.72229E-001	1.97141E-008	0.00000E+000	-2.70000E-001	4.90076E-004	7	...........	-327.63
	2868	57.38	-2.66361E-001	1.98516E-008	0.00000E+000	-2.64000E-001	5.10076E-004	7	...........	-327.63
	2871	57.44	-2.60287E-001	1.98266E-008	0.00000E+000	-2.58000E-001	5.06743E-004	7	...........	-327.63
	2874	57.5	-2.54296E-001	1.98308E-008	0.00000E+000	-2.52000E-001	5.05076E-004	7	...........	-327.63
	2877	57.56	-2.48279E-001	1.98725E-008	0.00000E+000	-2.46000E-001	4.88410E-004	7	...........	-327.63
	2880	57.62	-2.42439E-001	1.98683E-008	0.00000E+000	-2.40000E-001	5.05076E-004	7	...........	-327.63
	2883	57.68	-2.36346E-001	2.00058E-008	0.00000E+000	-2.34000E-001	4.95076E-004	7	...........	-327.63
	2886	57.74	-2.30329E-001	1.99100E-008	0.00000E+000	-2.28000E-001	4.95076E-004	7	...........	-327.63
	2889	57.8	-2.24317E-001	1.99308E-008	0.00000E+000	-2.22000E-001	4.98410E-004	7	...........	-327.63
	2892	57.86	-2.18281E-001	1.97433E-008	0.00000E+000	-2.16000E-001	5.01743E-004	7	...........	-327.63
	2895	57.92	-2.12387E-001	1.98100E-008	0.00000E+000	-2.10000E-001	4.95076E-004	7	...........	-327.63
	2898	57.98	-2.06339E-001	2.00225E-008	0.00000E+000	-2.04000E-001	5.30076E-004	7	...........	-327.63
	2901	58.04	-2.00369E-001	2.00808E-008	0.00000E+000	-1.98000E-001	5.18410E-004	7	...........	-327.63
	2904	58.1	-1.94351E-001	1.99641E-008	0.00000E+000	-1.92000E-001	5.33410E-004	7	...........	-327.63
	2907	58.16	-1.88420E-001	1.98933E-008	0.00000E+000	-1.86000E-001	5.03410E-004	7	...........	-327.63
	2910	58.22	-1.82394E-001	1.97016E-008	0.00000E+000	-1.80000E-001	5.25076E-004	7	...........	-327.63
	2913	58.28	-1.76385E-001	1.96683E-008	0.00000E+000	-1.74000E-001	5.00076E-004	7	...........	-327.63
	2916	58.34	-1.70405E-001	1.98141E-008	0.00000E+000	-1.68000E-001	5.05076E-004	7	...........	-327.63
	2919	58.4	-1.64488E-001	1.97516E-008	0.00000E+000	-1.62000E-001	5.15076E-004	7	...........	-327.63
	2922	58.46	-1.58427E-001	1.97225E-008	0.00000E+000	-1.56000E-001	5.38410E-004	7	...........	-327.63
	2925	58.52	-1.52430E-001	1.96850E-008	0.00000E+000	-1.50000E-001	4.68410E-004	7	...........	-327.63
	2928	58.58	-1.46424E-001	1.98975E-008	0.00000E+000	-1.44000E-001	5.26743E-004	7	...........	-327.63
	2931	58.64	-1.40447E-001	1.97891E-008	0.00000E+000	-1.38000E-001	5.08410E-004	7	...........	-327.63
	2934	58.7	-1.34492E-001	1.97433E-008	0.00000E+000	-1.32000E-001	5.25076E-004	7	...........	-327.63
	2937	58.76	-1.28468E-001	1.96391E-008	0.00000E+000	-1.26000E-001	5.31743E-004	7	...........	-327.63
	2940	58.82	-1.22474E-001	1.96266E-008	0.00000E+000	-1.20000E-001	5.40076E-004	7	...........	-327.63
	2943	58.88	-1.16445E-001	1.95558E-008	0.00000E+000	-1.14000E-001	5.38410E-004	7	...........	-327.63
	2946	58.94	-1.10529E-001	1.95099E-008	0.00000E+000	-1.08000E-001	5.00076E-004	7	...........	-327.63
	2949	59	-1.04462E-001	1.95349E-008	0.00000E+000	-1.02000E-001	5.08410E-004	7	...........	-327.63
	2952	59.06	-9.85045E-002	1.96349E-008	0.00000E+000	-9.60000E-002	5.06743E-004	7	...........	-327.63
	2955	59.12	-9.24937E-002	1.96141E-008	0.00000E+000	-9.00000E-002	5.06743E-004	7	...........	-327.63
	2958	59.18	-8.65949E-002	1.97475E-008	0.00000E+000	-8.40000E-002	4.91743E-004	7	...........	-327.63
	2961	59.24	-8.05462E-002	1.96808E-008	0.00000E+000	-7.80000E-002	5.06743E-004	7	...........	-327.63
	2964	59.3	-7.45428E-002	1.96683E-008	0.00000E+000	-7.20000E-002	5.16743E-004	7	...........	-327.63
	2967	59.36	-6.85245E-002	1.96850E-008	0.00000E+000	-6.60000E-002	5.21743E-004	7	...........	-327.63
	2970	59.42	-6.26324E-002	1.97225E-008	0.00000E+000	-6.00000E-002	4.91743E-004	7	...........	-327.63
	2973	59.48	-5.66020E-002	1.97141E-008	0.00000E+000	-5.40000E-002	5.21743E-004	7	...........	-327.63
	2976	59.54	-5.05749E-002	1.96516E-008	0.00000E+000	-4.80000E-002	4.96743E-004	7	...........	-327.63
	2979	59.6	-4.45649E-002	1.96266E-008	0.00000E+000	-4.20000E-002	5.13410E-004	7	...........	-327.63
	2982	59.66	-3.85616E-002	1.96808E-008	0.00000E+000	-3.60000E-002	5.20076E-004	7	...........	-327.63
	2985	59.72	-3.26682E-002	1.96433E-008	0.00000E+000	-3.00000E-002	4.93410E-004	7	...........	-327.63
	2988	59.78	-2.66162E-002	1.96641E-008	0.00000E+000	-2.40000E-002	5.51743E-004	7	...........	-327.63
	2991	59.84	-2.06120E-002	1.98475E-008	0.00000E+000	-1.80000E-002	5.25076E-004	7	...........	-327.63
	2994	59.9	-1.46070E-002	1.98308E-008	0.00000E+000	-1.20000E-002	5.01743E-004	7	...........	-327.63
	2997	59.96	-8.72616E-003	1.98100E-008	0.00000E+000	-6.00000E-003	5.11743E-004	7	...........	-327.63
	3000	60.02	-2.62866E-003	1.96850E-008	0.00000E+000	0.00000E+000	5.23410E-004	7	...........	-327.63