File: Gamry/CV_smallGrid_newBuffer_2.DTA
EXPLAIN
TAG	CV
TITLE	LABEL	Cyclic Voltammetry	Test &Identifier
DATE	LABEL	5-12-2022	Date
TIME	LABEL	13:06:58	Time
NOTES	NOTES	1	&Notes...

PSTAT	PSTAT	REF3000-20110	Potentiostat
VINIT	POTEN	0.00000E+000	F	Initial &E (V)
VLIMIT1	POTEN	5.00000E-001	F	Scan Limit &1 (V)
VLIMIT2	POTEN	-5.00000E-001	F	Scan Limit &2 (V)
VFINAL	POTEN	0.00000E+000	F	Final &E (V)
SCANRATE	QUANT	9.99998E+001	&Scan Rate (mV/s)
STEPSIZE	QUANT	2.00000E+000	St&ep Size (mV)
CYCLES	IQUANT	3	C&ycles (#)
IMODE	SELECTOR	0	I/E Range &Mode
IRANGE	QUANT	3.00000E-001	&Max Current (mA)
AREA	QUANT	1.00000E+000	Electrode &Area (cm^2)
ELECTRODETYPE	SELECTOR	0	Electrode Type
STRIPPING	TOGGLE	F	Used for Stripping
CONDIT	TWOPARAM	F	1.50000E+001	0.00000E+000	Conditionin&g	Time(s)	E(V)
DELAY	TWOPARAM	F	3.00000E+001	0.00000E+000	Init. De&lay	Time(s)	Stab.(mV/s)
EQDELAY	QUANT	0.00000E+000	Equil. &Time (s)
IRCOMP	SELECTOR	0	IRCom&p
PFCOR	QUANT	5.00000E+001	PF Corr. (ohm)
SAMPLINGMODE	SELECTOR	1	Sampling &Mode
EOC	QUANT	0	Open Circuit (V)
PSTATMODEL	IQUANT	5	Pstat Model
PSTATSECTION	LABEL	REF3000-20110	Pstat Section
PSTATSERIALNO	LABEL	20110	Pstat Serial Number
CTRLMODE	IQUANT	1	Control Mode
ELECTROMETER	IQUANT	0	RE=0 or CS=1
IESTAB	IQUANT	2	I/E Stability
CASPEED	IQUANT	4	Control Amp Speed
CONVENTION	IQUANT	1	Current Convention
ICHRANGE	IQUANT	2	Ich Range
ICHRANGEMODE	TOGGLE	F	Ich Auto Range
ICHOFFSETENABLE	TOGGLE	F	Ich Offset Enable
ICHOFFSET	QUANT	0	Ich Offset (V)
ICHFILTER	IQUANT	2	Ich Filter
VCHRANGE	IQUANT	2	Vch Range
VCHRANGEMODE	TOGGLE	F	Vch Auto Range
VCHOFFSETENABLE	TOGGLE	F	Vch Offset Enable
VCHOFFSET	QUANT	0	Vch Offset (V)
VCHFILTER	IQUANT	2	Vch Filter
ACHRANGE	IQUANT	2	Ach Range
ACHOFFSETENABLE	TOGGLE	F	Ach Offset Enable
ACHOFFSET	QUANT	0	Ach Offset (V)
ACHFILTER	IQUANT	1	Ach Filter
IERANGELOWERLIMIT	IQUANT	2	I/E Range Lower Limit
IERANGEMODE	TOGGLE	T	I/E AutoRange
IERANGE	IQUANT	9	I/E Range
POSFEEDENABLE	TOGGLE	F	Positive Feedback IR Comp
POSFEEDRESISTANCE	QUANT	0	Positive Feedback Resistance (ohm)
ACHSELECT	IQUANT	4	Ach Select
SENSECABLEID	IQUANT	14	Sense Cable ID
PWRCABLEID	IQUANT	7	Power Cable ID
DCCALDATE	LABEL	8/9/2022	DC Calibration Date
ACCALDATE	LABEL	8/9/2022	AC Calibration Date
THERMOSELECT	IQUANT	1	Thermo Select
FRAMEWORKVERSION	LABEL	7.9.0	Framework Version
INSTRUMENTVERSION	LABEL	4.60	Instrument Version
COMPLIANCEVOLTAGE	IQUANT	0	Compliance Voltage
CURVE1	TABLE
	Pt	T	Vf	Im	Vu	Sig	Ach	IERange	Over	Temp
	#	s	V vs. Ref.	A	V	V	V	#	bits	deg C
	0	0.02	2.62098E-003	-7.60690E-008	0.00000E+000	0.00000E+000	8.37576E-004	9	...........	-327.63
	8	0.18	1.88218E-002	-1.08579E-008	0.00000E+000	1.60000E-002	8.38410E-004	7	...h.......	-327.63
	16	0.34	3.51201E-002	-1.12412E-008	0.00000E+000	3.20000E-002	8.38410E-004	7	...........	-327.63
	24	0.5	5.09718E-002	-1.13204E-008	0.00000E+000	4.80000E-002	8.42576E-004	7	...h.......	-327.63
	32	0.66	6.68159E-002	-1.13412E-008	0.00000E+000	6.40000E-002	8.33410E-004	7	...........	-327.63
	40	0.82	8.25742E-002	-1.15037E-008	0.00000E+000	8.00000E-002	8.32576E-004	7	...........	-327.63
	48	0.98	9.89755E-002	-1.14495E-008	0.00000E+000	9.60000E-002	8.35076E-004	7	...........	-327.63
	56	1.14	1.14585E-001	-1.09662E-008	0.00000E+000	1.12000E-001	8.34243E-004	7	...........	-327.63
	64	1.3	1.78460E-001	-1.30329E-008	0.00000E+000	1.28000E-001	8.21743E-004	7	..ch.......	-327.63
	72	1.46	1.44851E-001	-1.13079E-008	0.00000E+000	1.44000E-001	8.30910E-004	7	...........	-327.63
	80	1.62	1.61963E-001	-1.25121E-008	0.00000E+000	1.60000E-001	8.13410E-004	7	...........	-327.63
	88	1.78	1.79011E-001	-1.21912E-008	0.00000E+000	1.76000E-001	8.32576E-004	7	...........	-327.63
	96	1.94	1.92783E-001	-1.14120E-008	0.00000E+000	1.92000E-001	8.27576E-004	7	...........	-327.63
	104	2.1	2.08894E-001	-1.19079E-008	0.00000E+000	2.08000E-001	8.31743E-004	7	...........	-327.63
	112	2.26	2.29352E-001	-1.25913E-008	0.00000E+000	2.24000E-001	8.44243E-004	7	...........	-327.63
	120	2.42	2.44276E-001	-1.23412E-008	0.00000E+000	2.40000E-001	8.35076E-004	7	...........	-327.63
	128	2.58	2.60135E-001	-1.24371E-008	0.00000E+000	2.56000E-001	8.31743E-004	7	...........	-327.63
	136	2.74	2.76794E-001	-1.25287E-008	0.00000E+000	2.72000E-001	8.34243E-004	7	...........	-327.63
	144	2.9	2.93278E-001	-1.26121E-008	0.00000E+000	2.88000E-001	8.33410E-004	7	...........	-327.63
	152	3.06	3.07713E-001	-1.25371E-008	0.00000E+000	3.04000E-001	8.37576E-004	7	...........	-327.63
	160	3.22	3.24624E-001	-1.21662E-008	0.00000E+000	3.20000E-001	8.33410E-004	7	...h.......	-327.63
	168	3.38	3.39824E-001	-1.18662E-008	0.00000E+000	3.36000E-001	8.32576E-004	7	...........	-327.63
	176	3.54	3.55826E-001	-1.18204E-008	0.00000E+000	3.52000E-001	8.40076E-004	7	...........	-327.63
	184	3.7	3.70886E-001	-1.11370E-008	0.00000E+000	3.68000E-001	8.30910E-004	7	...........	-327.63
	192	3.86	3.84689E-001	-1.08537E-008	0.00000E+000	3.84000E-001	8.33410E-004	7	...........	-327.63
	200	4.02	4.00890E-001	-1.09162E-008	0.00000E+000	4.00000E-001	8.35910E-004	7	...........	-327.63
	208	4.18	4.19085E-001	-1.06495E-008	0.00000E+000	4.16000E-001	8.40910E-004	7	...........	-327.63
	216	4.34	4.34746E-001	-1.02828E-008	0.00000E+000	4.32000E-001	8.37576E-004	7	...........	-327.63
	224	4.5	4.49016E-001	-9.99532E-009	0.00000E+000	4.48000E-001	8.26743E-004	7	...........	-327.63
	232	4.66	4.67322E-001	-9.72031E-009	0.00000E+000	4.64000E-001	8.26743E-004	7	...........	-327.63
	240	4.82	4.82160E-001	-9.25779E-009	0.00000E+000	4.80000E-001	8.39243E-004	7	...........	-327.63
	248	4.98	4.99937E-001	-9.35363E-009	0.00000E+000	4.96000E-001	8.31743E-004	7	...........	-327.63
	256	5.14	4.89807E-001	-8.60777E-009	0.00000E+000	4.88000E-001	8.25076E-004	7	...........	-327.63
	264	5.3	4.74908E-001	-7.80357E-009	0.00000E+000	4.72000E-001	8.45076E-004	7	...........	-327.63
	272	5.46	4.58457E-001	-7.11188E-009	0.00000E+000	4.56000E-001	8.23410E-004	7	...........	-327.63
	280	5.62	4.42311E-001	-6.84937E-009	0.00000E+000	4.40000E-001	8.32576E-004	7	...........	-327.63
	288	5.78	4.26905E-001	-6.23268E-009	0.00000E+000	4.24000E-001	8.40076E-004	7	...........	-327.63
	296	5.94	4.10670E-001	-5.44515E-009	0.00000E+000	4.08000E-001	8.39243E-004	7	...........	-327.63
	304	6.1	3.94863E-001	-5.06597E-009	0.00000E+000	3.92000E-001	8.32576E-004	7	...........	-327.63
	312	6.26	3.78801E-001	-4.84096E-009	0.00000E+000	3.76000E-001	8.36743E-004	7	...........	-327.63
	320	6.42	3.62789E-001	-4.19927E-009	0.00000E+000	3.60000E-001	8.26743E-004	7	...........	-327.63
	328	6.58	3.47638E-001	-3.79509E-009	0.00000E+000	3.44000E-001	8.31743E-004	7	...........	-327.63
	336	6.74	3.30842E-001	-2.81589E-009	0.00000E+000	3.28000E-001	8.35076E-004	7	...........	-327.63
	344	6.9	3.14760E-001	-2.25753E-009	0.00000E+000	3.12000E-001	8.36743E-004	7	...........	-327.63
	352	7.06	2.99400E-001	-2.05336E-009	0.00000E+000	2.96000E-001	8.35076E-004	7	...........	-327.63
	360	7.22	2.82502E-001	-9.15816E-010	0.00000E+000	2.80000E-001	8.25910E-004	7	...........	-327.63
	368	7.38	2.66241E-001	-1.28286E-010	0.00000E+000	2.64000E-001	8.20076E-004	7	...........	-327.63
	376	7.54	2.49987E-001	2.05059E-010	0.00000E+000	2.48000E-001	8.35076E-004	7	...........	-327.63
	384	7.7	2.34375E-001	1.07593E-009	0.00000E+000	2.32000E-001	8.25910E-004	7	...........	-327.63
	392	7.86	2.18299E-001	2.08430E-009	0.00000E+000	2.16000E-001	8.25910E-004	7	...........	-327.63
	400	8.02	2.02108E-001	2.91766E-009	0.00000E+000	2.00000E-001	8.29243E-004	7	...........	-327.63
	408	8.18	1.85817E-001	3.85520E-009	0.00000E+000	1.84000E-001	8.31743E-004	7	...........	-327.63
	416	8.34	1.70458E-001	4.33855E-009	0.00000E+000	1.68000E-001	8.38410E-004	7	...........	-327.63
	424	8.5	1.53135E-001	5.69276E-009	0.00000E+000	1.52000E-001	8.25076E-004	7	...........	-327.63
	432	8.66	1.37544E-001	6.46779E-009	0.00000E+000	1.36000E-001	8.30910E-004	7	...........	-327.63
	440	8.82	1.21754E-001	7.31782E-009	0.00000E+000	1.20000E-001	8.45076E-004	7	...........	-327.63
	448	8.98	1.04673E-001	8.50954E-009	0.00000E+000	1.04000E-001	8.30910E-004	7	...........	-327.63
	456	9.14	8.98109E-002	9.05122E-009	0.00000E+000	8.80000E-002	8.31743E-004	7	...........	-327.63
	464	9.3	7.31463E-002	9.85125E-009	0.00000E+000	7.20000E-002	8.34243E-004	7	...........	-327.63
	472	9.46	5.73909E-002	1.04471E-008	0.00000E+000	5.60000E-002	8.28410E-004	7	...........	-327.63
	480	9.62	4.16572E-002	1.08596E-008	0.00000E+000	4.00000E-002	8.31743E-004	7	...........	-327.63
	488	9.78	2.46968E-002	1.18555E-008	0.00000E+000	2.40000E-002	8.38410E-004	7	...........	-327.63
	496	9.94	9.49467E-003	1.22430E-008	0.00000E+000	8.00000E-003	8.33410E-004	7	...........	-327.63
	504	10.1	-6.59783E-003	1.31847E-008	0.00000E+000	-8.00000E-003	8.30076E-004	7	...........	-327.63
	512	10.26	-2.26253E-002	1.41389E-008	0.00000E+000	-2.40000E-002	8.39243E-004	7	...........	-327.63
	520	10.42	-3.88370E-002	1.49181E-008	0.00000E+000	-4.00000E-002	8.29243E-004	7	...........	-327.63
	528	10.58	-5.47970E-002	1.56431E-008	0.00000E+000	-5.60000E-002	8.32576E-004	7	...........	-327.63
	536	10.74	-7.12207E-002	1.62723E-008	0.00000E+000	-7.20000E-002	8.44243E-004	7	...........	-327.63
	544	10.9	-8.69653E-002	1.68723E-008	0.00000E+000	-8.80000E-002	8.32576E-004	7	...........	-327.63
	552	11.06	-1.03119E-001	1.72557E-008	0.00000E+000	-1.04000E-001	8.35076E-004	7	...........	-327.63
	560	11.22	-1.19093E-001	1.78932E-008	0.00000E+000	-1.20000E-001	8.32576E-004	7	...........	-327.63
	568	11.38	-1.34923E-001	1.85557E-008	0.00000E+000	-1.36000E-001	8.20910E-004	7	...........	-327.63
	576	11.54	-1.50957E-001	1.89391E-008	0.00000E+000	-1.52000E-001	8.35910E-004	7	...........	-327.63
	584	11.7	-1.66967E-001	1.92099E-008	0.00000E+000	-1.68000E-001	8.35076E-004	7	...........	-327.63
	592	11.86	-1.82990E-001	1.95391E-008	0.00000E+000	-1.84000E-001	8.42576E-004	7	...........	-327.63
	600	12.02	-1.99063E-001	1.96683E-008	0.00000E+000	-2.00000E-001	8.33410E-004	7	...........	-327.63
	608	12.18	-2.15714E-001	2.02100E-008	0.00000E+000	-2.16000E-001	8.24243E-004	7	...........	-327.63
	616	12.34	-2.31338E-001	2.04975E-008	0.00000E+000	-2.32000E-001	8.46743E-004	7	...........	-327.63
	624	12.5	-2.49024E-001	2.14767E-008	0.00000E+000	-2.48000E-001	8.23410E-004	7	...........	-327.63
	632	12.66	-2.63519E-001	2.11100E-008	0.00000E+000	-2.64000E-001	8.40076E-004	7	...........	-327.63
	640	12.82	-2.79981E-001	2.14517E-008	0.00000E+000	-2.80000E-001	8.22576E-004	7	...........	-327.63
	648	12.98	-2.96099E-001	2.15309E-008	0.00000E+000	-2.96000E-001	8.45076E-004	7	...........	-327.63
	656	13.14	-3.12202E-001	2.17059E-008	0.00000E+000	-3.12000E-001	8.24243E-004	7	...........	-327.63
	664	13.3	-3.29642E-001	2.21434E-008	0.00000E+000	-3.28000E-001	8.13410E-004	7	...........	-327.63
	672	13.46	-3.43479E-001	2.15892E-008	0.00000E+000	-3.44000E-001	8.26743E-004	7	...........	-327.63
	680	13.62	-3.60063E-001	2.13517E-008	0.00000E+000	-3.60000E-001	8.40076E-004	7	...........	-327.63
	688	13.78	-3.75108E-001	2.08433E-008	0.00000E+000	-3.76000E-001	8.27576E-004	7	...........	-327.63
	696	13.94	-3.91155E-001	2.03141E-008	0.00000E+000	-3.92000E-001	8.29243E-004	7	...........	-327.63
	704	14.1	-4.08054E-001	2.01725E-008	0.00000E+000	-4.08000E-001	8.27576E-004	7	...........	-327.63
	712	14.26	-4.24045E-001	2.01266E-008	0.00000E+000	-4.24000E-001	8.18410E-004	7	...........	-327.63
	720	14.42	-4.39030E-001	1.97850E-008	0.00000E+000	-4.40000E-001	8.29243E-004	7	...........	-327.63
	728	14.58	-4.54870E-001	1.89308E-008	0.00000E+000	-4.56000E-001	8.27576E-004	7	...........	-327.63
	736	14.74	-4.70871E-001	1.82599E-008	0.00000E+000	-4.72000E-001	8.20910E-004	7	...........	-327.63
	744	14.9	-4.86806E-001	1.76640E-008	0.00000E+000	-4.88000E-001	8.32576E-004	7	...........	-327.63
	750	15.02	-4.98748E-001	1.70682E-008	0.00000E+000	-5.00000E-001	8.20076E-004	7	...........	-327.63
CURVE2	TABLE
	Pt	T	Vf	Im	Vu	Sig	Ach	IERange	Over	Temp
	#	s	V vs. Ref.	A	V	V	V	#	bits	deg C
	751	15.04	-4.96715E-001	1.70849E-008	0.00000E+000	-4.98000E-001	7.70076E-004	7	...........	-327.63
	761	15.24	-4.76687E-001	1.60890E-008	0.00000E+000	-4.78000E-001	7.85076E-004	7	...........	-327.63
	771	15.44	-4.56501E-001	1.50931E-008	0.00000E+000	-4.58000E-001	7.73410E-004	7	...........	-327.63
	781	15.64	-4.36896E-001	1.41264E-008	0.00000E+000	-4.38000E-001	7.66743E-004	7	...........	-327.63
	791	15.84	-4.16456E-001	1.30347E-008	0.00000E+000	-4.18000E-001	7.81743E-004	7	...........	-327.63
	801	16.04	-3.97381E-001	1.18847E-008	0.00000E+000	-3.98000E-001	7.56743E-004	7	...........	-327.63
	811	16.24	-3.75879E-001	1.09013E-008	0.00000E+000	-3.78000E-001	7.69243E-004	7	...........	-327.63
	821	16.44	-3.58682E-001	9.98876E-009	0.00000E+000	-3.58000E-001	7.65910E-004	7	...........	-327.63
	831	16.64	-3.37614E-001	8.73454E-009	0.00000E+000	-3.38000E-001	7.82576E-004	7	...........	-327.63
	841	16.84	-3.16027E-001	7.07198E-009	0.00000E+000	-3.18000E-001	7.66743E-004	7	...........	-327.63
	851	17.04	-2.95920E-001	5.71360E-009	0.00000E+000	-2.98000E-001	7.64243E-004	7	...........	-327.63
	861	17.24	-2.76332E-001	4.18021E-009	0.00000E+000	-2.78000E-001	7.80910E-004	7	...........	-327.63
	871	17.44	-2.55711E-001	2.92599E-009	0.00000E+000	-2.58000E-001	7.72576E-004	7	...........	-327.63
	881	17.64	-2.35612E-001	1.65095E-009	0.00000E+000	-2.38000E-001	8.03410E-004	7	...........	-327.63
	891	17.84	-2.15515E-001	6.17575E-010	0.00000E+000	-2.18000E-001	7.37576E-004	7	...........	-327.63
	901	18.04	-1.95457E-001	-4.19964E-010	0.00000E+000	-1.98000E-001	7.88410E-004	7	...........	-327.63
	911	18.24	-1.75378E-001	-1.28666E-009	0.00000E+000	-1.78000E-001	7.50910E-004	7	...........	-327.63
	921	18.44	-1.54960E-001	-2.27420E-009	0.00000E+000	-1.58000E-001	7.85076E-004	7	...........	-327.63
	931	18.64	-1.34292E-001	-3.22840E-009	0.00000E+000	-1.38000E-001	7.55076E-004	7	...........	-327.63
	941	18.84	-1.14504E-001	-4.60762E-009	0.00000E+000	-1.18000E-001	7.67576E-004	7	...........	-327.63
	951	19.04	-9.56591E-002	-5.43682E-009	0.00000E+000	-9.80000E-002	7.73410E-004	7	...........	-327.63
	961	19.24	-7.50199E-002	-7.04938E-009	0.00000E+000	-7.80000E-002	7.49243E-004	7	...........	-327.63
	971	19.44	-5.46241E-002	-7.94108E-009	0.00000E+000	-5.80000E-002	7.67576E-004	7	...........	-327.63
	981	19.64	-3.36549E-002	-8.69944E-009	0.00000E+000	-3.80000E-002	7.70076E-004	7	...........	-327.63
	991	19.84	-1.34920E-002	-9.29946E-009	0.00000E+000	-1.80000E-002	7.49243E-004	7	...........	-327.63
	1001	20.04	7.02842E-003	-9.78698E-009	0.00000E+000	2.00000E-003	7.94243E-004	7	...........	-327.63
	1011	20.24	2.65209E-002	-1.02745E-008	0.00000E+000	2.20000E-002	7.78410E-004	7	...........	-327.63
	1021	20.44	4.71213E-002	-1.08620E-008	0.00000E+000	4.20000E-002	7.81743E-004	7	...........	-327.63
	1031	20.64	6.69684E-002	-1.08745E-008	0.00000E+000	6.20000E-002	7.86743E-004	7	...........	-327.63
	1041	20.84	8.70134E-002	-1.09620E-008	0.00000E+000	8.20000E-002	7.63410E-004	7	...........	-327.63
	1051	21.04	1.07145E-001	-1.13787E-008	0.00000E+000	1.02000E-001	7.80910E-004	7	...........	-327.63
	1061	21.24	1.27014E-001	-1.15662E-008	0.00000E+000	1.22000E-001	7.60910E-004	7	...........	-327.63
	1071	21.44	1.47533E-001	-1.21162E-008	0.00000E+000	1.42000E-001	4.19243E-004	7	...........	-327.63
	1081	21.64	1.66283E-001	-1.14370E-008	0.00000E+000	1.62000E-001	4.11743E-004	7	...........	-327.63
	1091	21.84	1.87117E-001	-1.22162E-008	0.00000E+000	1.82000E-001	4.05910E-004	7	...........	-327.63
	1101	22.04	2.07028E-001	-1.18996E-008	0.00000E+000	2.02000E-001	4.27576E-004	7	...........	-327.63
	1111	22.24	2.27344E-001	-1.21662E-008	0.00000E+000	2.22000E-001	4.03410E-004	7	...........	-327.63
	1121	22.44	2.45226E-001	-1.14829E-008	0.00000E+000	2.42000E-001	4.22576E-004	7	...........	-327.63
	1131	22.64	2.65628E-001	-1.10537E-008	0.00000E+000	2.62000E-001	4.15076E-004	7	...........	-327.63
	1141	22.84	2.85556E-001	-1.05370E-008	0.00000E+000	2.82000E-001	4.25910E-004	7	...........	-327.63
	1151	23.04	3.05551E-001	-1.05203E-008	0.00000E+000	3.02000E-001	4.18410E-004	7	...........	-327.63
	1161	23.24	3.25487E-001	-1.00662E-008	0.00000E+000	3.22000E-001	4.25076E-004	7	...........	-327.63
	1171	23.44	3.45453E-001	-1.00037E-008	0.00000E+000	3.42000E-001	4.30910E-004	7	...........	-327.63
	1181	23.64	3.65352E-001	-9.27863E-009	0.00000E+000	3.62000E-001	4.40076E-004	7	...........	-327.63
	1191	23.84	3.85255E-001	-8.07442E-009	0.00000E+000	3.82000E-001	4.35910E-004	7	...........	-327.63
	1201	24.04	4.05165E-001	-7.23688E-009	0.00000E+000	4.02000E-001	4.23410E-004	7	...........	-327.63
	1211	24.24	4.25066E-001	-6.53686E-009	0.00000E+000	4.22000E-001	4.11743E-004	7	...........	-327.63
	1221	24.44	4.44953E-001	-5.53265E-009	0.00000E+000	4.42000E-001	4.10076E-004	7	...........	-327.63
	1231	24.64	4.64829E-001	-4.71596E-009	0.00000E+000	4.62000E-001	4.25076E-004	7	...........	-327.63
	1241	24.84	4.84719E-001	-3.49091E-009	0.00000E+000	4.82000E-001	4.14243E-004	7	...........	-327.63
	1251	25.04	5.00618E-001	-3.02839E-009	0.00000E+000	4.98000E-001	4.22576E-004	7	...........	-327.63
	1261	25.24	4.80556E-001	-2.21170E-009	0.00000E+000	4.78000E-001	4.39243E-004	7	...........	-327.63
	1271	25.44	4.60479E-001	-9.94985E-010	0.00000E+000	4.58000E-001	4.05910E-004	7	...........	-327.63
	1281	25.64	4.40395E-001	-8.66182E-011	0.00000E+000	4.38000E-001	4.16743E-004	7	...........	-327.63
[...]
CURVE4	TABLE
	Pt	T	Vf	Im	Vu	Sig	Ach	IERange	Over	Temp
	#	s	V vs. Ref.	A	V	V	V	#	bits	deg C
	2751	55.04	-4.93226E-001	-1.01578E-008	0.00000E+000	-4.98000E-001	4.26743E-004	7	...........	-327.63
	2754	55.1	-4.87311E-001	-9.99115E-009	0.00000E+000	-4.92000E-001	4.19243E-004	7	...........	-327.63
	2757	55.16	-4.81359E-001	-1.00245E-008	0.00000E+000	-4.86000E-001	4.45076E-004	7	...........	-327.63
	2760	55.22	-4.75316E-001	-9.75365E-009	0.00000E+000	-4.80000E-001	4.37576E-004	7	...........	-327.63
	2763	55.28	-4.69205E-001	-9.89532E-009	0.00000E+000	-4.74000E-001	4.12576E-004	7	...........	-327.63
	2766	55.34	-4.63321E-001	-9.75781E-009	0.00000E+000	-4.68000E-001	4.35910E-004	7	...........	-327.63
	2769	55.4	-4.57452E-001	-9.63281E-009	0.00000E+000	-4.62000E-001	4.13410E-004	7	...........	-327.63
	2772	55.46	-4.51373E-001	-9.75365E-009	0.00000E+000	-4.56000E-001	4.25910E-004	7	...........	-327.63
	2775	55.52	-4.45406E-001	-1.01037E-008	0.00000E+000	-4.50000E-001	4.03410E-004	7	...........	-327.63
	2778	55.58	-4.39400E-001	-1.00078E-008	0.00000E+000	-4.44000E-001	4.36743E-004	7	...........	-327.63
	2781	55.64	-4.33404E-001	-9.79531E-009	0.00000E+000	-4.38000E-001	4.32576E-004	7	...........	-327.63
	2784	55.7	-4.27404E-001	-9.78281E-009	0.00000E+000	-4.32000E-001	4.40910E-004	7	...........	-327.63
	2787	55.76	-4.21457E-001	-9.67448E-009	0.00000E+000	-4.26000E-001	4.18410E-004	7	...........	-327.63
	2790	55.82	-4.15467E-001	-9.81198E-009	0.00000E+000	-4.20000E-001	4.41743E-004	7	...........	-327.63
	2793	55.88	-4.09468E-001	-9.55364E-009	0.00000E+000	-4.14000E-001	4.30076E-004	7	...........	-327.63
	2796	55.94	-4.03484E-001	-9.68698E-009	0.00000E+000	-4.08000E-001	4.44243E-004	7	...........	-327.63
	2799	56	-3.97526E-001	-9.59531E-009	0.00000E+000	-4.02000E-001	4.16743E-004	7	...........	-327.63
	2802	56.06	-3.91497E-001	-9.37030E-009	0.00000E+000	-3.96000E-001	4.45910E-004	7	...........	-327.63
	2805	56.12	-3.85522E-001	-9.47030E-009	0.00000E+000	-3.90000E-001	4.40076E-004	7	...........	-327.63
	2808	56.18	-3.80246E-001	-9.14112E-009	0.00000E+000	-3.84000E-001	4.41743E-004	7	...........	-327.63
	2811	56.24	-3.73545E-001	-9.29113E-009	0.00000E+000	-3.78000E-001	4.20076E-004	7	...........	-327.63
	2814	56.3	-3.67542E-001	-9.47863E-009	0.00000E+000	-3.72000E-001	4.45910E-004	7	...........	-327.63
	2817	56.36	-3.61564E-001	-9.38696E-009	0.00000E+000	-3.66000E-001	4.10910E-004	7	...........	-327.63
	2820	56.42	-3.55604E-001	-9.36196E-009	0.00000E+000	-3.60000E-001	4.61743E-004	7	...........	-327.63
	2823	56.48	-3.49596E-001	-9.34113E-009	0.00000E+000	-3.54000E-001	4.26743E-004	7	...........	-327.63
	2826	56.54	-3.43625E-001	-9.36196E-009	0.00000E+000	-3.48000E-001	4.64243E-004	7	...........	-327.63
	2829	56.6	-3.37626E-001	-9.17446E-009	0.00000E+000	-3.42000E-001	4.37576E-004	7	...........	-327.63
	2832	56.66	-3.31651E-001	-9.12862E-009	0.00000E+000	-3.36000E-001	4.29243E-004	7	...........	-327.63
	2835	56.72	-3.25658E-001	-8.90361E-009	0.00000E+000	-3.30000E-001	4.10910E-004	7	...........	-327.63
	2838	56.78	-3.19886E-001	-8.87445E-009	0.00000E+000	-3.24000E-001	4.08410E-004	7	...........	-327.63
	2841	56.84	-3.13712E-001	-8.77444E-009	0.00000E+000	-3.18000E-001	3.99243E-004	7	...........	-327.63
	2844	56.9	-3.07592E-001	-8.87861E-009	0.00000E+000	-3.12000E-001	4.15910E-004	7	...........	-327.63
	2847	56.96	-3.01836E-001	-8.61610E-009	0.00000E+000	-3.06000E-001	4.37576E-004	7	...........	-327.63
	2850	57.02	-2.95752E-001	-8.49110E-009	0.00000E+000	-3.00000E-001	4.34243E-004	7	...........	-327.63
	2853	57.08	-2.89782E-001	-8.42443E-009	0.00000E+000	-2.94000E-001	4.24243E-004	7	...........	-327.63
	2856	57.14	-2.83800E-001	-8.47443E-009	0.00000E+000	-2.88000E-001	4.50910E-004	7	...........	-327.63
	2859	57.2	-2.77824E-001	-8.22859E-009	0.00000E+000	-2.82000E-001	4.13410E-004	7	...........	-327.63
	2862	57.26	-2.71817E-001	-8.12442E-009	0.00000E+000	-2.76000E-001	4.20076E-004	7	...........	-327.63
	2865	57.32	-2.65835E-001	-7.98691E-009	0.00000E+000	-2.70000E-001	4.32576E-004	7	...........	-327.63
	2868	57.38	-2.59975E-001	-7.79107E-009	0.00000E+000	-2.64000E-001	4.35910E-004	7	...........	-327.63
	2871	57.44	-2.53956E-001	-7.81191E-009	0.00000E+000	-2.58000E-001	4.13410E-004	7	...........	-327.63
	2874	57.5	-2.48094E-001	-7.50356E-009	0.00000E+000	-2.52000E-001	4.16743E-004	7	...........	-327.63
	2877	57.56	-2.42070E-001	-7.53273E-009	0.00000E+000	-2.46000E-001	4.25076E-004	7	...........	-327.63
	2880	57.62	-2.36221E-001	-7.48689E-009	0.00000E+000	-2.40000E-001	4.10076E-004	7	...........	-327.63
	2883	57.68	-2.29870E-001	-7.24939E-009	0.00000E+000	-2.34000E-001	4.24243E-004	7	...........	-327.63
	2886	57.74	-2.24020E-001	-7.21605E-009	0.00000E+000	-2.28000E-001	4.38410E-004	7	...........	-327.63
	2889	57.8	-2.17999E-001	-7.18688E-009	0.00000E+000	-2.22000E-001	4.54243E-004	7	...........	-327.63
	2892	57.86	-2.11973E-001	-6.90771E-009	0.00000E+000	-2.16000E-001	4.45076E-004	7	...........	-327.63
	2895	57.92	-2.06005E-001	-6.87020E-009	0.00000E+000	-2.10000E-001	4.31743E-004	7	...........	-327.63
	2898	57.98	-2.00014E-001	-6.72437E-009	0.00000E+000	-2.04000E-001	4.29243E-004	7	...........	-327.63
	2901	58.04	-1.94030E-001	-6.59936E-009	0.00000E+000	-1.98000E-001	4.33410E-004	7	...........	-327.63
	2904	58.1	-1.88273E-001	-6.39935E-009	0.00000E+000	-1.92000E-001	4.22576E-004	7	...........	-327.63
	2907	58.16	-1.82044E-001	-6.53269E-009	0.00000E+000	-1.86000E-001	4.48410E-004	7	...........	-327.63
	2910	58.22	-1.76076E-001	-6.08268E-009	0.00000E+000	-1.80000E-001	4.30910E-004	7	...........	-327.63
	2913	58.28	-1.70116E-001	-5.84100E-009	0.00000E+000	-1.74000E-001	4.35076E-004	7	...........	-327.63
	2916	58.34	-1.64413E-001	-5.88267E-009	0.00000E+000	-1.68000E-001	4.26743E-004	7	...........	-327.63
	2919	58.4	-1.58211E-001	-5.97017E-009	0.00000E+000	-1.62000E-001	4.33410E-004	7	...........	-327.63
	2922	58.46	-1.52334E-001	-5.66599E-009	0.00000E+000	-1.56000E-001	4.27576E-004	7	...........	-327.63
	2925	58.52	-1.46348E-001	-5.43682E-009	0.00000E+000	-1.50000E-001	4.20076E-004	7	...........	-327.63
	2928	58.58	-1.40427E-001	-5.54516E-009	0.00000E+000	-1.44000E-001	4.32576E-004	7	...........	-327.63
	2931	58.64	-1.34524E-001	-5.39932E-009	0.00000E+000	-1.38000E-001	4.36743E-004	7	...........	-327.63
	2934	58.7	-1.28294E-001	-5.32848E-009	0.00000E+000	-1.32000E-001	4.45910E-004	7	...........	-327.63
	2937	58.76	-1.22515E-001	-5.11597E-009	0.00000E+000	-1.26000E-001	4.17576E-004	7	...........	-327.63
	2940	58.82	-1.16568E-001	-5.15347E-009	0.00000E+000	-1.20000E-001	4.28410E-004	7	...........	-327.63
	2943	58.88	-1.10426E-001	-4.88263E-009	0.00000E+000	-1.14000E-001	4.32576E-004	7	...........	-327.63
	2946	58.94	-1.04384E-001	-4.98680E-009	0.00000E+000	-1.08000E-001	4.24243E-004	7	...........	-327.63
	2949	59	-9.73632E-002	-5.11597E-009	0.00000E+000	-1.02000E-001	4.15076E-004	7	...........	-327.63
	2952	59.06	-9.27824E-002	-4.76596E-009	0.00000E+000	-9.60000E-002	4.05910E-004	7	...........	-327.63
	2955	59.12	-8.64241E-002	-5.02430E-009	0.00000E+000	-9.00000E-002	4.27576E-004	7	...........	-327.63
	2958	59.18	-8.03816E-002	-4.92013E-009	0.00000E+000	-8.40000E-002	4.27576E-004	7	...........	-327.63
	2961	59.24	-7.52028E-002	-4.63262E-009	0.00000E+000	-7.80000E-002	4.20910E-004	7	...........	-327.63
	2964	59.3	-6.82737E-002	-4.88680E-009	0.00000E+000	-7.20000E-002	4.50910E-004	7	...........	-327.63
	2967	59.36	-6.24895E-002	-4.91180E-009	0.00000E+000	-6.60000E-002	4.35910E-004	7	...........	-327.63
	2970	59.42	-5.68453E-002	-4.30761E-009	0.00000E+000	-6.00000E-002	4.51743E-004	7	...........	-327.63
	2973	59.48	-5.08699E-002	-4.19094E-009	0.00000E+000	-5.40000E-002	4.35076E-004	7	...........	-327.63
	2976	59.54	-4.49345E-002	-4.08260E-009	0.00000E+000	-4.80000E-002	4.20910E-004	7	...........	-327.63
	2979	59.6	-3.90087E-002	-3.93259E-009	0.00000E+000	-4.20000E-002	4.40076E-004	7	...........	-327.63
	2982	59.66	-3.30162E-002	-3.83676E-009	0.00000E+000	-3.60000E-002	4.29243E-004	7	...........	-327.63
	2985	59.72	-2.69337E-002	-3.71175E-009	0.00000E+000	-3.00000E-002	4.23410E-004	7	...........	-327.63
	2988	59.78	-2.05982E-002	-3.65342E-009	0.00000E+000	-2.40000E-002	4.44243E-004	7	...........	-327.63
	2991	59.84	-1.46124E-002	-3.42424E-009	0.00000E+000	-1.80000E-002	4.21743E-004	7	...........	-327.63
	2994	59.9	-8.55991E-003	-3.35341E-009	0.00000E+000	-1.20000E-002	4.32576E-004	7	...........	-327.63
	2997	59.96	-2.75199E-003	-3.29924E-009	0.00000E+000	-6.00000E-003	4.23410E-004	7	...........	-327.63
	3000	60.02	2.82926E-003	-2.99089E-009	0.00000E+000	0.00000E+000	4.35076E-004	7	...........	-327.63