File: Gamry/CV_smallGrid_newBuffer_1.DTA
EXPLAIN
TAG	CV
TITLE	LABEL	Cyclic Voltammetry	Test &Identifier
DATE	LABEL	5-12-2022	Date
TIME	LABEL	13:03:32	Time
NOTES	NOTES	1	&Notes...

PSTAT	PSTAT	REF3000-20110	Potentiostat
VINIT	POTEN	0.00000E+000	F	Initial &E (V)
VLIMIT1	POTEN	5.00000E-001	F	Scan Limit &1 (V)
VLIMIT2	POTEN	-5.00000E-001	F	Scan Limit &2 (V)
VFINAL	POTEN	0.00000E+000	F	Final &E (V)
SCANRATE	QUANT	9.99998E+001	&Scan Rate (mV/s)
STEPSIZE	QUANT	2.00000E+000	St&ep Size (mV)
CYCLES	IQUANT	3	C&ycles (#)
IMODE	SELECTOR	0	I/E Range &Mode
IRANGE	QUANT	3.00000E-001	&Max Current (mA)
AREA	QUANT	1.00000E+000	Electrode &Area (cm^2)
ELECTRODETYPE	SELECTOR	0	Electrode Type
STRIPPING	TOGGLE	F	Used for Stripping
CONDIT	TWOPARAM	F	1.50000E+001	0.00000E+000	Conditionin&g	Time(s)	E(V)
DELAY	TWOPARAM	F	3.00000E+001	0.00000E+000	Init. De&lay	Time(s)	Stab.(mV/s)
EQDELAY	QUANT	0.00000E+000	Equil. &Time (s)
IRCOMP	SELECTOR	0	IRCom&p
PFCOR	QUANT	5.00000E+001	PF Corr. (ohm)
SAMPLINGMODE	SELECTOR	1	Sampling &Mode
EOC	QUANT	0	Open Circuit (V)
PSTATMODEL	IQUANT	5	Pstat Model
PSTATSECTION	LABEL	REF3000-20110	Pstat Section
PSTATSERIALNO	LABEL	20110	Pstat Serial Number
CTRLMODE	IQUANT	1	Control Mode
ELECTROMETER	IQUANT	0	RE=0 or CS=1
IESTAB	IQUANT	2	I/E Stability
CASPEED	IQUANT	4	Control Amp Speed
CONVENTION	IQUANT	1	Current Convention
ICHRANGE	IQUANT	2	Ich Range
ICHRANGEMODE	TOGGLE	F	Ich Auto Range
ICHOFFSETENABLE	TOGGLE	F	Ich Offset Enable
ICHOFFSET	QUANT	0	Ich Offset (V)
ICHFILTER	IQUANT	2	Ich Filter
VCHRANGE	IQUANT	2	Vch Range
VCHRANGEMODE	TOGGLE	F	Vch Auto Range
VCHOFFSETENABLE	TOGGLE	F	Vch Offset Enable
VCHOFFSET	QUANT	0	Vch Offset (V)
VCHFILTER	IQUANT	2	Vch Filter
ACHRANGE	IQUANT	2	Ach Range
ACHOFFSETENABLE	TOGGLE	F	Ach Offset Enable
ACHOFFSET	QUANT	0	Ach Offset (V)
ACHFILTER	IQUANT	1	Ach Filter
IERANGELOWERLIMIT	IQUANT	2	I/E Range Lower Limit
IERANGEMODE	TOGGLE	T	I/E AutoRange
IERANGE	IQUANT	9	I/E Range
POSFEEDENABLE	TOGGLE	F	Positive Feedback IR Comp
POSFEEDRESISTANCE	QUANT	0	Positive Feedback Resistance (ohm)
ACHSELECT	IQUANT	4	Ach Select
SENSECABLEID	IQUANT	14	Sense Cable ID
PWRCABLEID	IQUANT	7	Power Cable ID
DCCALDATE	LABEL	8/9/2022	DC Calibration Date
ACCALDATE	LABEL	8/9/2022	AC Calibration Date
THERMOSELECT	IQUANT	1	Thermo Select
FRAMEWORKVERSION	LABEL	7.9.0	Framework Version
INSTRUMENTVERSION	LABEL	4.60	Instrument Version
COMPLIANCEVOLTAGE	IQUANT	0	Compliance Voltage
CURVE1	TABLE
	Pt	T	Vf	Im	Vu	Sig	Ach	IERange	Over	Temp
	#	s	V vs. Ref.	A	V	V	V	#	bits	deg C
	0	0.02	-2.36152E-003	-1.07420E-007	0.00000E+000	0.00000E+000	6.91743E-004	9	...........	-327.63
	8	0.18	1.34393E-002	1.94224E-008	0.00000E+000	1.60000E-002	6.89243E-004	7	...........	-327.63
	16	0.34	2.94647E-002	1.92641E-008	0.00000E+000	3.20000E-002	6.89243E-004	7	...........	-327.63
	24	0.5	4.28963E-002	2.01766E-008	0.00000E+000	4.80000E-002	6.84243E-004	7	...........	-327.63
	32	0.66	6.03855E-002	2.03600E-008	0.00000E+000	6.40000E-002	6.79243E-004	7	...........	-327.63
	40	0.82	7.49805E-002	2.08558E-008	0.00000E+000	8.00000E-002	6.84243E-004	7	...........	-327.63
	48	0.98	9.09209E-002	2.07433E-008	0.00000E+000	9.60000E-002	6.79243E-004	7	...........	-327.63
	56	1.14	1.08374E-001	2.04766E-008	0.00000E+000	1.12000E-001	6.85910E-004	7	...........	-327.63
	64	1.3	1.24361E-001	2.05558E-008	0.00000E+000	1.28000E-001	6.82576E-004	7	...........	-327.63
	72	1.46	1.40941E-001	2.07350E-008	0.00000E+000	1.44000E-001	6.78410E-004	7	...........	-327.63
	80	1.62	1.57419E-001	2.05392E-008	0.00000E+000	1.60000E-001	6.78410E-004	7	...........	-327.63
	88	1.78	1.72890E-001	2.07058E-008	0.00000E+000	1.76000E-001	7.06743E-004	7	...........	-327.63
	96	1.94	1.86786E-001	2.14559E-008	0.00000E+000	1.92000E-001	6.87576E-004	7	...........	-327.63
	104	2.1	2.03293E-001	2.10975E-008	0.00000E+000	2.08000E-001	6.89243E-004	7	...........	-327.63
	112	2.26	2.17753E-001	2.09350E-008	0.00000E+000	2.24000E-001	6.84243E-004	7	...........	-327.63
	120	2.42	2.37201E-001	1.98308E-008	0.00000E+000	2.40000E-001	6.83410E-004	7	..ch.......	-327.63
	128	2.58	2.50737E-001	2.03058E-008	0.00000E+000	2.56000E-001	6.90076E-004	7	...........	-327.63
	136	2.74	2.69573E-001	1.92516E-008	0.00000E+000	2.72000E-001	6.84243E-004	7	...........	-327.63
	144	2.9	2.84241E-001	1.92474E-008	0.00000E+000	2.88000E-001	6.78410E-004	7	...........	-327.63
	152	3.06	3.00420E-001	1.87766E-008	0.00000E+000	3.04000E-001	6.95076E-004	7	...........	-327.63
	160	3.22	3.16082E-001	1.84099E-008	0.00000E+000	3.20000E-001	6.83410E-004	7	...........	-327.63
	168	3.38	3.32892E-001	1.76682E-008	0.00000E+000	3.36000E-001	6.87576E-004	7	...........	-327.63
	176	3.54	3.47052E-001	1.77515E-008	0.00000E+000	3.52000E-001	6.88410E-004	7	...........	-327.63
	184	3.7	3.66033E-001	1.62640E-008	0.00000E+000	3.68000E-001	6.93410E-004	7	...........	-327.63
	192	3.86	3.80394E-001	1.61682E-008	0.00000E+000	3.84000E-001	6.81743E-004	7	...........	-327.63
	200	4.02	3.96545E-001	1.56265E-008	0.00000E+000	4.00000E-001	6.90910E-004	7	...........	-327.63
	208	4.18	4.12700E-001	1.51931E-008	0.00000E+000	4.16000E-001	6.92576E-004	7	...........	-327.63
	216	4.34	4.29490E-001	1.41847E-008	0.00000E+000	4.32000E-001	6.82576E-004	7	...........	-327.63
	224	4.5	4.45320E-001	1.38222E-008	0.00000E+000	4.48000E-001	6.85910E-004	7	...........	-327.63
	232	4.66	4.61523E-001	1.31014E-008	0.00000E+000	4.64000E-001	6.90910E-004	7	...........	-327.63
	240	4.82	4.77959E-001	1.23388E-008	0.00000E+000	4.80000E-001	6.91743E-004	7	...........	-327.63
	248	4.98	4.92310E-001	1.23055E-008	0.00000E+000	4.96000E-001	6.83410E-004	7	...........	-327.63
	256	5.14	4.86490E-001	1.10596E-008	0.00000E+000	4.88000E-001	6.79243E-004	7	...........	-327.63
	264	5.3	4.69391E-001	1.04471E-008	0.00000E+000	4.72000E-001	6.83410E-004	7	...........	-327.63
	272	5.46	4.52257E-001	9.93459E-009	0.00000E+000	4.56000E-001	6.85910E-004	7	...........	-327.63
	280	5.62	4.39493E-001	8.32620E-009	0.00000E+000	4.40000E-001	6.75076E-004	7	...........	-327.63
	288	5.78	4.22234E-001	7.60950E-009	0.00000E+000	4.24000E-001	6.87576E-004	7	...........	-327.63
	296	5.94	4.04999E-001	7.08032E-009	0.00000E+000	4.08000E-001	6.84243E-004	7	...........	-327.63
	304	6.1	3.90422E-001	5.91361E-009	0.00000E+000	3.92000E-001	6.79243E-004	7	...........	-327.63
	312	6.26	3.74088E-001	4.88857E-009	0.00000E+000	3.76000E-001	6.86743E-004	7	...........	-327.63
	320	6.42	3.59060E-001	3.72602E-009	0.00000E+000	3.60000E-001	6.88410E-004	7	...........	-327.63
	328	6.58	3.43090E-001	3.14684E-009	0.00000E+000	3.44000E-001	6.87576E-004	7	...........	-327.63
	336	6.74	3.26633E-001	2.14680E-009	0.00000E+000	3.28000E-001	6.75910E-004	7	...........	-327.63
	344	6.9	3.11500E-001	1.19260E-009	0.00000E+000	3.12000E-001	6.75910E-004	7	...........	-327.63
	352	7.06	2.95791E-001	3.88399E-010	0.00000E+000	2.96000E-001	6.90910E-004	7	...........	-327.63
	360	7.22	2.79819E-001	-3.32461E-010	0.00000E+000	2.80000E-001	6.81743E-004	7	...........	-327.63
	368	7.38	2.63342E-001	-1.01999E-009	0.00000E+000	2.64000E-001	6.80076E-004	7	...........	-327.63
	376	7.54	2.48427E-001	-2.12003E-009	0.00000E+000	2.48000E-001	6.90076E-004	7	...........	-327.63
	384	7.7	2.31565E-001	-2.36587E-009	0.00000E+000	2.32000E-001	6.84243E-004	7	...........	-327.63
	392	7.86	2.15795E-001	-2.98256E-009	0.00000E+000	2.16000E-001	6.82576E-004	7	...........	-327.63
	400	8.02	2.00690E-001	-3.67842E-009	0.00000E+000	2.00000E-001	6.91743E-004	7	...........	-327.63
	408	8.18	1.84308E-001	-4.15760E-009	0.00000E+000	1.84000E-001	6.86743E-004	7	...........	-327.63
	416	8.34	1.67646E-001	-4.85346E-009	0.00000E+000	1.68000E-001	6.91743E-004	7	...........	-327.63
	424	8.5	1.52658E-001	-5.61599E-009	0.00000E+000	1.52000E-001	6.81743E-004	7	...........	-327.63
	432	8.66	1.35864E-001	-6.04517E-009	0.00000E+000	1.36000E-001	6.73410E-004	7	...........	-327.63
	440	8.82	1.20088E-001	-6.69103E-009	0.00000E+000	1.20000E-001	6.90910E-004	7	...........	-327.63
	448	8.98	1.05329E-001	-7.71607E-009	0.00000E+000	1.04000E-001	6.81743E-004	7	...........	-327.63
	456	9.14	8.93147E-002	-8.07025E-009	0.00000E+000	8.80000E-002	6.80910E-004	7	...........	-327.63
	464	9.3	7.32843E-002	-8.92861E-009	0.00000E+000	7.20000E-002	6.85910E-004	7	...h.......	-327.63
	472	9.46	5.78976E-002	-9.52030E-009	0.00000E+000	5.60000E-002	6.75076E-004	7	...h.......	-327.63
	480	9.62	4.24772E-002	-9.99949E-009	0.00000E+000	4.00000E-002	6.92576E-004	7	...........	-327.63
	488	9.78	2.61230E-002	-1.05078E-008	0.00000E+000	2.40000E-002	6.81743E-004	7	...........	-327.63
	496	9.94	1.03809E-002	-1.08995E-008	0.00000E+000	8.00000E-003	6.84243E-004	7	...........	-327.63
	504	10.1	-5.67949E-003	-1.11329E-008	0.00000E+000	-8.00000E-003	6.83410E-004	7	...........	-327.63
	512	10.26	-2.33149E-002	-1.11495E-008	0.00000E+000	-2.40000E-002	6.97576E-004	7	...........	-327.63
	520	10.42	-3.71557E-002	-1.22371E-008	0.00000E+000	-4.00000E-002	6.94243E-004	7	...........	-327.63
	528	10.58	-5.47641E-002	-1.22079E-008	0.00000E+000	-5.60000E-002	6.91743E-004	7	...h.......	-327.63
	536	10.74	-6.88412E-002	-1.28413E-008	0.00000E+000	-7.20000E-002	6.79243E-004	7	...........	-327.63
	544	10.9	-8.49620E-002	-1.33496E-008	0.00000E+000	-8.80000E-002	6.95076E-004	7	...h.......	-327.63
	552	11.06	-1.00630E-001	-1.34704E-008	0.00000E+000	-1.04000E-001	6.81743E-004	7	...........	-327.63
	560	11.22	-1.16642E-001	-1.35580E-008	0.00000E+000	-1.20000E-001	6.89243E-004	7	...........	-327.63
	568	11.38	-1.32353E-001	-1.38163E-008	0.00000E+000	-1.36000E-001	6.88410E-004	7	...........	-327.63
	576	11.54	-1.49426E-001	-1.33579E-008	0.00000E+000	-1.52000E-001	6.90910E-004	7	...........	-327.63
	584	11.7	-1.66309E-001	-1.33454E-008	0.00000E+000	-1.68000E-001	6.97576E-004	7	...........	-327.63
	592	11.86	-1.81694E-001	-1.33871E-008	0.00000E+000	-1.84000E-001	6.95910E-004	7	...........	-327.63
	600	12.02	-1.96609E-001	-1.40705E-008	0.00000E+000	-2.00000E-001	6.93410E-004	7	...........	-327.63
	608	12.18	-2.14630E-001	-1.33871E-008	0.00000E+000	-2.16000E-001	6.83410E-004	7	...h.......	-327.63
	616	12.34	-2.28362E-001	-1.38621E-008	0.00000E+000	-2.32000E-001	6.87576E-004	7	...........	-327.63
	624	12.5	-2.43742E-001	-1.39330E-008	0.00000E+000	-2.48000E-001	6.90910E-004	7	...........	-327.63
	632	12.66	-2.58897E-001	-1.41955E-008	0.00000E+000	-2.64000E-001	6.89243E-004	7	...........	-327.63
	640	12.82	-2.78425E-001	-1.34871E-008	0.00000E+000	-2.80000E-001	6.86743E-004	7	...........	-327.63
	648	12.98	-2.92477E-001	-1.39996E-008	0.00000E+000	-2.96000E-001	6.91743E-004	7	...........	-327.63
	656	13.14	-3.08755E-001	-1.36538E-008	0.00000E+000	-3.12000E-001	6.85076E-004	7	...........	-327.63
	664	13.3	-3.24804E-001	-1.35955E-008	0.00000E+000	-3.28000E-001	6.77576E-004	7	...........	-327.63
	672	13.46	-3.39294E-001	-1.40663E-008	0.00000E+000	-3.44000E-001	6.99243E-004	7	...........	-327.63
	680	13.62	-3.57656E-001	-1.31454E-008	0.00000E+000	-3.60000E-001	6.70076E-004	7	...........	-327.63
	688	13.78	-3.73014E-001	-1.33329E-008	0.00000E+000	-3.76000E-001	6.94243E-004	7	...........	-327.63
	696	13.94	-3.88580E-001	-1.29121E-008	0.00000E+000	-3.92000E-001	6.85076E-004	7	...........	-327.63
	704	14.1	-4.04926E-001	-1.25996E-008	0.00000E+000	-4.08000E-001	6.85076E-004	7	...........	-327.63
	712	14.26	-4.22285E-001	-1.22579E-008	0.00000E+000	-4.24000E-001	6.88410E-004	7	...........	-327.63
	720	14.42	-4.36743E-001	-1.23662E-008	0.00000E+000	-4.40000E-001	6.93410E-004	7	...........	-327.63
	728	14.58	-4.53177E-001	-1.19662E-008	0.00000E+000	-4.56000E-001	6.86743E-004	7	...........	-327.63
	736	14.74	-4.69755E-001	-1.13745E-008	0.00000E+000	-4.72000E-001	6.94243E-004	7	...........	-327.63
	744	14.9	-4.86659E-001	-1.10662E-008	0.00000E+000	-4.88000E-001	6.87576E-004	7	..ch.......	-327.63
	750	15.02	-4.97409E-001	-1.05995E-008	0.00000E+000	-5.00000E-001	6.74243E-004	7	...........	-327.63
CURVE2	TABLE
	Pt	T	Vf	Im	Vu	Sig	Ach	IERange	Over	Temp
	#	s	V vs. Ref.	A	V	V	V	#	bits	deg C
	751	15.04	-4.95613E-001	-1.04412E-008	0.00000E+000	-4.98000E-001	6.26743E-004	7	...........	-327.63
	761	15.24	-4.75235E-001	-9.77865E-009	0.00000E+000	-4.78000E-001	6.36743E-004	7	...........	-327.63
	771	15.44	-4.55432E-001	-9.27863E-009	0.00000E+000	-4.58000E-001	6.20910E-004	7	...........	-327.63
	781	15.64	-4.36074E-001	-8.46193E-009	0.00000E+000	-4.38000E-001	6.33410E-004	7	...........	-327.63
	791	15.84	-4.16721E-001	-7.82857E-009	0.00000E+000	-4.18000E-001	6.19243E-004	7	...........	-327.63
	801	16.04	-3.97719E-001	-7.02021E-009	0.00000E+000	-3.98000E-001	6.20910E-004	7	..ch.......	-327.63
	811	16.24	-3.76943E-001	-6.59519E-009	0.00000E+000	-3.78000E-001	6.19243E-004	7	...........	-327.63
	821	16.44	-3.57265E-001	-6.00767E-009	0.00000E+000	-3.58000E-001	6.20910E-004	7	...........	-327.63
	831	16.64	-3.37545E-001	-5.12431E-009	0.00000E+000	-3.38000E-001	6.30910E-004	7	...........	-327.63
	841	16.84	-3.17195E-001	-4.58262E-009	0.00000E+000	-3.18000E-001	6.16743E-004	7	...........	-327.63
	851	17.04	-2.97262E-001	-4.06177E-009	0.00000E+000	-2.98000E-001	6.20910E-004	7	...........	-327.63
	861	17.24	-2.77730E-001	-3.18257E-009	0.00000E+000	-2.78000E-001	6.37576E-004	7	...........	-327.63
	871	17.44	-2.57488E-001	-2.64088E-009	0.00000E+000	-2.58000E-001	6.35910E-004	7	...........	-327.63
	881	17.64	-2.39307E-001	-1.34917E-009	0.00000E+000	-2.38000E-001	6.15910E-004	7	...........	-327.63
	891	17.84	-2.17071E-001	-7.69977E-010	0.00000E+000	-2.18000E-001	6.17576E-004	7	...........	-327.63
	901	18.04	-1.97851E-001	3.84233E-010	0.00000E+000	-1.98000E-001	6.25076E-004	7	...........	-327.63
	911	18.24	-1.78515E-001	1.51761E-009	0.00000E+000	-1.78000E-001	6.22576E-004	7	...........	-327.63
	921	18.44	-1.58341E-001	2.28014E-009	0.00000E+000	-1.58000E-001	6.27576E-004	7	...........	-327.63
	931	18.64	-1.38488E-001	3.34684E-009	0.00000E+000	-1.38000E-001	6.15076E-004	7	...........	-327.63
	941	18.84	-1.19412E-001	4.30521E-009	0.00000E+000	-1.18000E-001	6.35910E-004	7	...........	-327.63
	951	19.04	-9.87228E-002	5.06357E-009	0.00000E+000	-9.80000E-002	6.21743E-004	7	...........	-327.63
	961	19.24	-7.94457E-002	6.00944E-009	0.00000E+000	-7.80000E-002	6.31743E-004	7	...........	-327.63
	971	19.44	-5.98057E-002	6.95948E-009	0.00000E+000	-5.80000E-002	6.25076E-004	7	...........	-327.63
	981	19.64	-4.01574E-002	7.75117E-009	0.00000E+000	-3.80000E-002	6.28410E-004	7	...........	-327.63
	991	19.84	-1.91049E-002	8.00535E-009	0.00000E+000	-1.80000E-002	6.33410E-004	7	...........	-327.63
	1001	20.04	-2.21993E-004	8.99705E-009	0.00000E+000	2.00000E-003	6.19243E-004	7	...........	-327.63
	1011	20.24	1.97226E-002	9.90959E-009	0.00000E+000	2.20000E-002	6.15076E-004	7	...........	-327.63
	1021	20.44	3.95018E-002	1.03388E-008	0.00000E+000	4.20000E-002	6.19243E-004	7	...........	-327.63
	1031	20.64	5.93322E-002	1.11055E-008	0.00000E+000	6.20000E-002	6.30910E-004	7	...........	-327.63
	1041	20.84	7.89184E-002	1.19805E-008	0.00000E+000	8.20000E-002	6.18410E-004	7	...........	-327.63
	1051	21.04	9.91551E-002	1.23222E-008	0.00000E+000	1.02000E-001	6.18410E-004	7	...........	-327.63
	1061	21.24	1.18923E-001	1.33597E-008	0.00000E+000	1.22000E-001	6.15910E-004	7	...........	-327.63
	1071	21.44	1.38547E-001	1.41014E-008	0.00000E+000	1.42000E-001	4.15910E-004	7	...........	-327.63
	1081	21.64	1.58456E-001	1.43431E-008	0.00000E+000	1.62000E-001	4.18410E-004	7	...........	-327.63
	1091	21.84	1.78043E-001	1.48681E-008	0.00000E+000	1.82000E-001	4.10910E-004	7	...........	-327.63
	1101	22.04	1.98015E-001	1.54973E-008	0.00000E+000	2.02000E-001	4.20076E-004	7	...........	-327.63
	1111	22.24	2.18683E-001	1.55848E-008	0.00000E+000	2.22000E-001	4.16743E-004	7	...........	-327.63
	1121	22.44	2.37603E-001	1.64098E-008	0.00000E+000	2.42000E-001	4.08410E-004	7	...........	-327.63
	1131	22.64	2.57938E-001	1.68390E-008	0.00000E+000	2.62000E-001	4.00076E-004	7	...........	-327.63
	1141	22.84	2.78096E-001	1.72807E-008	0.00000E+000	2.82000E-001	4.27576E-004	7	...........	-327.63
	1151	23.04	2.98891E-001	1.76057E-008	0.00000E+000	3.02000E-001	4.05910E-004	7	...........	-327.63
	1161	23.24	3.19038E-001	1.81307E-008	0.00000E+000	3.22000E-001	4.02576E-004	7	...h.......	-327.63
	1171	23.44	3.36761E-001	1.87683E-008	0.00000E+000	3.42000E-001	4.17576E-004	7	...........	-327.63
	1181	23.64	3.58819E-001	1.85224E-008	0.00000E+000	3.62000E-001	4.00910E-004	7	...h.......	-327.63
	1191	23.84	3.76932E-001	1.90891E-008	0.00000E+000	3.82000E-001	4.23410E-004	7	...........	-327.63
	1201	24.04	3.96415E-001	1.95224E-008	0.00000E+000	4.02000E-001	4.26743E-004	7	...h.......	-327.63
	1211	24.24	4.18191E-001	1.94183E-008	0.00000E+000	4.22000E-001	4.18410E-004	7	...........	-327.63
	1221	24.44	4.36043E-001	2.05016E-008	0.00000E+000	4.42000E-001	4.07576E-004	7	...........	-327.63
	1231	24.64	4.58070E-001	1.99141E-008	0.00000E+000	4.62000E-001	4.06743E-004	7	...........	-327.63
	1241	24.84	4.78610E-001	2.00641E-008	0.00000E+000	4.82000E-001	4.09243E-004	7	...........	-327.63
	1251	25.04	4.91896E-001	2.08183E-008	0.00000E+000	4.98000E-001	4.07576E-004	7	...........	-327.63
	1261	25.24	4.73012E-001	2.05975E-008	0.00000E+000	4.78000E-001	4.06743E-004	7	...h.......	-327.63
	1271	25.44	4.53158E-001	2.08183E-008	0.00000E+000	4.58000E-001	4.21743E-004	7	...........	-327.63
	1281	25.64	4.34449E-001	2.07058E-008	0.00000E+000	4.38000E-001	4.12576E-004	7	...........	-327.63
[...]
	2750	55.02	-5.04589E-001	2.03225E-008	0.00000E+000	-5.00000E-001	4.25076E-004	7	...........	-327.63
CURVE4	TABLE
	Pt	T	Vf	Im	Vu	Sig	Ach	IERange	Over	Temp
	#	s	V vs. Ref.	A	V	V	V	#	bits	deg C
	2751	55.04	-5.02624E-001	2.02933E-008	0.00000E+000	-4.98000E-001	4.10910E-004	7	...........	-327.63
	2754	55.1	-4.96669E-001	2.02600E-008	0.00000E+000	-4.92000E-001	4.22576E-004	7	...........	-327.63
	2757	55.16	-4.90669E-001	2.05350E-008	0.00000E+000	-4.86000E-001	4.01743E-004	7	...........	-327.63
	2760	55.22	-4.84633E-001	2.05058E-008	0.00000E+000	-4.80000E-001	4.06743E-004	7	...........	-327.63
	2763	55.28	-4.78566E-001	2.04141E-008	0.00000E+000	-4.74000E-001	4.18410E-004	7	...........	-327.63
	2766	55.34	-4.72842E-001	2.07558E-008	0.00000E+000	-4.68000E-001	4.28410E-004	7	...........	-327.63
	2769	55.4	-4.66834E-001	2.07225E-008	0.00000E+000	-4.62000E-001	4.37576E-004	7	...........	-327.63
	2772	55.46	-4.60844E-001	2.08433E-008	0.00000E+000	-4.56000E-001	4.18410E-004	7	...........	-327.63
	2775	55.52	-4.53025E-001	2.02600E-008	0.00000E+000	-4.50000E-001	4.24243E-004	7	...h.......	-327.63
	2778	55.58	-4.47785E-001	2.06892E-008	0.00000E+000	-4.44000E-001	4.34243E-004	7	...h.......	-327.63
	2781	55.64	-4.42823E-001	2.07558E-008	0.00000E+000	-4.38000E-001	4.28410E-004	7	...........	-327.63
	2784	55.7	-4.36915E-001	2.08350E-008	0.00000E+000	-4.32000E-001	4.14243E-004	7	...........	-327.63
	2787	55.76	-4.29698E-001	2.06767E-008	0.00000E+000	-4.26000E-001	4.11743E-004	7	...h.......	-327.63
	2790	55.82	-4.24717E-001	2.07808E-008	0.00000E+000	-4.20000E-001	4.22576E-004	7	...........	-327.63
	2793	55.88	-4.17164E-001	2.05850E-008	0.00000E+000	-4.14000E-001	4.45910E-004	7	...........	-327.63
	2796	55.94	-4.13027E-001	2.08058E-008	0.00000E+000	-4.08000E-001	4.07576E-004	7	...........	-327.63
	2799	56	-4.07064E-001	2.07850E-008	0.00000E+000	-4.02000E-001	4.17576E-004	7	...........	-327.63
	2802	56.06	-3.99800E-001	2.03516E-008	0.00000E+000	-3.96000E-001	4.12576E-004	7	...........	-327.63
	2805	56.12	-3.92455E-001	2.02350E-008	0.00000E+000	-3.90000E-001	4.30076E-004	7	..ch.......	-327.63
	2808	56.18	-3.89216E-001	2.10142E-008	0.00000E+000	-3.84000E-001	4.25910E-004	7	...........	-327.63
	2811	56.24	-3.83150E-001	2.07933E-008	0.00000E+000	-3.78000E-001	4.09243E-004	7	...h.......	-327.63
	2814	56.3	-3.75672E-001	2.02308E-008	0.00000E+000	-3.72000E-001	4.22576E-004	7	...........	-327.63
	2817	56.36	-3.71271E-001	2.08308E-008	0.00000E+000	-3.66000E-001	4.28410E-004	7	...........	-327.63
	2820	56.42	-3.65306E-001	2.09725E-008	0.00000E+000	-3.60000E-001	4.30076E-004	7	...........	-327.63
	2823	56.48	-3.59268E-001	2.09850E-008	0.00000E+000	-3.54000E-001	4.11743E-004	7	...........	-327.63
	2826	56.54	-3.51937E-001	2.08183E-008	0.00000E+000	-3.48000E-001	4.11743E-004	7	...........	-327.63
	2829	56.6	-3.46282E-001	2.09058E-008	0.00000E+000	-3.42000E-001	4.11743E-004	7	...........	-327.63
	2832	56.66	-3.41487E-001	2.13725E-008	0.00000E+000	-3.36000E-001	4.20910E-004	7	...........	-327.63
	2835	56.72	-3.35116E-001	2.13058E-008	0.00000E+000	-3.30000E-001	4.27576E-004	7	...........	-327.63
	2838	56.78	-3.29480E-001	2.12475E-008	0.00000E+000	-3.24000E-001	4.30076E-004	7	...........	-327.63
	2841	56.84	-3.23394E-001	2.10142E-008	0.00000E+000	-3.18000E-001	4.08410E-004	7	...........	-327.63
	2844	56.9	-3.17552E-001	2.13350E-008	0.00000E+000	-3.12000E-001	4.44243E-004	7	...........	-327.63
	2847	56.96	-3.11534E-001	2.13100E-008	0.00000E+000	-3.06000E-001	4.20910E-004	7	...........	-327.63
	2850	57.02	-3.04917E-001	2.11642E-008	0.00000E+000	-3.00000E-001	4.15076E-004	7	...h.......	-327.63
	2853	57.08	-2.99384E-001	2.07642E-008	0.00000E+000	-2.94000E-001	4.05076E-004	7	...........	-327.63
	2856	57.14	-2.93571E-001	2.11058E-008	0.00000E+000	-2.88000E-001	4.17576E-004	7	...........	-327.63
	2859	57.2	-2.87525E-001	2.10392E-008	0.00000E+000	-2.82000E-001	4.02576E-004	7	...........	-327.63
	2862	57.26	-2.81278E-001	2.10183E-008	0.00000E+000	-2.76000E-001	4.15910E-004	7	...........	-327.63
	2865	57.32	-2.75462E-001	2.08808E-008	0.00000E+000	-2.70000E-001	4.11743E-004	7	...........	-327.63
	2868	57.38	-2.69527E-001	2.09933E-008	0.00000E+000	-2.64000E-001	4.16743E-004	7	...........	-327.63
	2871	57.44	-2.63556E-001	2.10183E-008	0.00000E+000	-2.58000E-001	4.17576E-004	7	...........	-327.63
	2874	57.5	-2.57319E-001	2.08558E-008	0.00000E+000	-2.52000E-001	4.15076E-004	7	...........	-327.63
	2877	57.56	-2.51555E-001	2.10642E-008	0.00000E+000	-2.46000E-001	4.30076E-004	7	...........	-327.63
	2880	57.62	-2.45532E-001	2.09350E-008	0.00000E+000	-2.40000E-001	4.26743E-004	7	...........	-327.63
	2883	57.68	-2.39568E-001	2.07517E-008	0.00000E+000	-2.34000E-001	4.26743E-004	7	...........	-327.63
	2886	57.74	-2.30714E-001	1.97100E-008	0.00000E+000	-2.28000E-001	4.10910E-004	7	...........	-327.63
	2889	57.8	-2.24992E-001	1.96308E-008	0.00000E+000	-2.22000E-001	4.23410E-004	7	...........	-327.63
	2892	57.86	-2.19190E-001	1.94308E-008	0.00000E+000	-2.16000E-001	4.22576E-004	7	...........	-327.63
	2895	57.92	-2.14331E-001	1.99891E-008	0.00000E+000	-2.10000E-001	4.30076E-004	7	...........	-327.63
	2898	57.98	-2.08197E-001	1.97808E-008	0.00000E+000	-2.04000E-001	4.14243E-004	7	...........	-327.63
	2901	58.04	-2.03482E-001	1.99475E-008	0.00000E+000	-1.98000E-001	4.22576E-004	7	...........	-327.63
	2904	58.1	-1.97506E-001	1.98891E-008	0.00000E+000	-1.92000E-001	4.15910E-004	7	...........	-327.63
	2907	58.16	-1.87902E-001	1.90224E-008	0.00000E+000	-1.86000E-001	4.26743E-004	7	...........	-327.63
	2910	58.22	-1.83549E-001	1.93974E-008	0.00000E+000	-1.80000E-001	4.09243E-004	7	...........	-327.63
	2913	58.28	-1.75846E-001	1.91599E-008	0.00000E+000	-1.74000E-001	4.27576E-004	7	...........	-327.63
	2916	58.34	-1.70491E-001	1.90724E-008	0.00000E+000	-1.68000E-001	4.10910E-004	7	...........	-327.63
	2919	58.4	-1.65419E-001	1.90558E-008	0.00000E+000	-1.62000E-001	4.20910E-004	7	...........	-327.63
	2922	58.46	-1.57611E-001	1.85307E-008	0.00000E+000	-1.56000E-001	4.22576E-004	7	...........	-327.63
	2925	58.52	-1.52556E-001	1.85599E-008	0.00000E+000	-1.50000E-001	4.21743E-004	7	...........	-327.63
	2928	58.58	-1.46947E-001	1.85224E-008	0.00000E+000	-1.44000E-001	4.20076E-004	7	...........	-327.63
	2931	58.64	-1.43259E-001	1.86391E-008	0.00000E+000	-1.38000E-001	4.09243E-004	7	...........	-327.63
	2934	58.7	-1.36939E-001	1.86016E-008	0.00000E+000	-1.32000E-001	4.26743E-004	7	...........	-327.63
	2937	58.76	-1.29349E-001	1.83057E-008	0.00000E+000	-1.26000E-001	4.07576E-004	7	...........	-327.63
	2940	58.82	-1.23492E-001	1.80641E-008	0.00000E+000	-1.20000E-001	4.15076E-004	7	...........	-327.63
	2943	58.88	-1.17036E-001	1.75974E-008	0.00000E+000	-1.14000E-001	4.17576E-004	7	...........	-327.63
	2946	58.94	-1.12991E-001	1.78974E-008	0.00000E+000	-1.08000E-001	4.19243E-004	7	...........	-327.63
	2949	59	-1.04535E-001	1.73390E-008	0.00000E+000	-1.02000E-001	4.20910E-004	7	...........	-327.63
	2952	59.06	-9.76382E-002	1.70182E-008	0.00000E+000	-9.60000E-002	4.27576E-004	7	..ch.......	-327.63
	2955	59.12	-9.37212E-002	1.70724E-008	0.00000E+000	-9.00000E-002	4.10910E-004	7	...........	-327.63
	2958	59.18	-8.62153E-002	1.66140E-008	0.00000E+000	-8.40000E-002	4.20076E-004	7	...........	-327.63
	2961	59.24	-8.13007E-002	1.64348E-008	0.00000E+000	-7.80000E-002	4.15910E-004	7	...........	-327.63
	2964	59.3	-7.34699E-002	1.58140E-008	0.00000E+000	-7.20000E-002	4.17576E-004	7	...........	-327.63
	2967	59.36	-7.00628E-002	1.61098E-008	0.00000E+000	-6.60000E-002	4.12576E-004	7	...........	-327.63
	2970	59.42	-6.08378E-002	1.52348E-008	0.00000E+000	-6.00000E-002	4.30076E-004	7	..ch.......	-327.63
	2973	59.48	-5.63607E-002	1.53848E-008	0.00000E+000	-5.40000E-002	4.28410E-004	7	...........	-327.63
	2976	59.54	-5.04487E-002	1.52431E-008	0.00000E+000	-4.80000E-002	4.41743E-004	7	...........	-327.63
	2979	59.6	-4.44353E-002	1.49306E-008	0.00000E+000	-4.20000E-002	4.30076E-004	7	...........	-327.63
	2982	59.66	-3.79774E-002	1.46014E-008	0.00000E+000	-3.60000E-002	4.30076E-004	7	...........	-327.63
	2985	59.72	-3.23978E-002	1.44973E-008	0.00000E+000	-3.00000E-002	4.05076E-004	7	...........	-327.63
	2988	59.78	-2.60357E-002	1.38847E-008	0.00000E+000	-2.40000E-002	4.10910E-004	7	...........	-327.63
	2991	59.84	-2.03570E-002	1.39681E-008	0.00000E+000	-1.80000E-002	4.24243E-004	7	...........	-327.63
	2994	59.9	-1.23757E-002	1.32014E-008	0.00000E+000	-1.20000E-002	4.23410E-004	7	..ch.......	-327.63
	2997	59.96	-8.34908E-003	1.37097E-008	0.00000E+000	-6.00000E-003	4.32576E-004	7	...........	-327.63
	3000	60.02	-2.38491E-003	1.33931E-008	0.00000E+000	0.00000E+000	4.45910E-004	7	...........	-327.63