File: Gamry/CV_smallGrid_newBuffer_3.DTA
EXPLAIN
TAG	CV
TITLE	LABEL	Cyclic Voltammetry	Test &Identifier
DATE	LABEL	5-12-2022	Date
TIME	LABEL	13:11:56	Time
NOTES	NOTES	1	&Notes...

PSTAT	PSTAT	REF3000-20110	Potentiostat
VINIT	POTEN	0.00000E+000	F	Initial &E (V)
VLIMIT1	POTEN	5.00000E-001	F	Scan Limit &1 (V)
VLIMIT2	POTEN	-5.00000E-001	F	Scan Limit &2 (V)
VFINAL	POTEN	0.00000E+000	F	Final &E (V)
SCANRATE	QUANT	9.99998E+001	&Scan Rate (mV/s)
STEPSIZE	QUANT	2.00000E+000	St&ep Size (mV)
CYCLES	IQUANT	3	C&ycles (#)
IMODE	SELECTOR	0	I/E Range &Mode
IRANGE	QUANT	3.00000E-001	&Max Current (mA)
AREA	QUANT	1.00000E+000	Electrode &Area (cm^2)
ELECTRODETYPE	SELECTOR	0	Electrode Type
STRIPPING	TOGGLE	F	Used for Stripping
CONDIT	TWOPARAM	F	1.50000E+001	0.00000E+000	Conditionin&g	Time(s)	E(V)
DELAY	TWOPARAM	F	3.00000E+001	0.00000E+000	Init. De&lay	Time(s)	Stab.(mV/s)
EQDELAY	QUANT	0.00000E+000	Equil. &Time (s)
IRCOMP	SELECTOR	0	IRCom&p
PFCOR	QUANT	5.00000E+001	PF Corr. (ohm)
SAMPLINGMODE	SELECTOR	1	Sampling &Mode
EOC	QUANT	0	Open Circuit (V)
PSTATMODEL	IQUANT	5	Pstat Model
PSTATSECTION	LABEL	REF3000-20110	Pstat Section
PSTATSERIALNO	LABEL	20110	Pstat Serial Number
CTRLMODE	IQUANT	1	Control Mode
ELECTROMETER	IQUANT	0	RE=0 or CS=1
IESTAB	IQUANT	2	I/E Stability
CASPEED	IQUANT	4	Control Amp Speed
CONVENTION	IQUANT	1	Current Convention
ICHRANGE	IQUANT	2	Ich Range
ICHRANGEMODE	TOGGLE	F	Ich Auto Range
ICHOFFSETENABLE	TOGGLE	F	Ich Offset Enable
ICHOFFSET	QUANT	0	Ich Offset (V)
ICHFILTER	IQUANT	2	Ich Filter
VCHRANGE	IQUANT	2	Vch Range
VCHRANGEMODE	TOGGLE	F	Vch Auto Range
VCHOFFSETENABLE	TOGGLE	F	Vch Offset Enable
VCHOFFSET	QUANT	0	Vch Offset (V)
VCHFILTER	IQUANT	2	Vch Filter
ACHRANGE	IQUANT	2	Ach Range
ACHOFFSETENABLE	TOGGLE	F	Ach Offset Enable
ACHOFFSET	QUANT	0	Ach Offset (V)
ACHFILTER	IQUANT	1	Ach Filter
IERANGELOWERLIMIT	IQUANT	2	I/E Range Lower Limit
IERANGEMODE	TOGGLE	T	I/E AutoRange
IERANGE	IQUANT	9	I/E Range
POSFEEDENABLE	TOGGLE	F	Positive Feedback IR Comp
POSFEEDRESISTANCE	QUANT	0	Positive Feedback Resistance (ohm)
ACHSELECT	IQUANT	4	Ach Select
SENSECABLEID	IQUANT	14	Sense Cable ID
PWRCABLEID	IQUANT	7	Power Cable ID
DCCALDATE	LABEL	8/9/2022	DC Calibration Date
ACCALDATE	LABEL	8/9/2022	AC Calibration Date
THERMOSELECT	IQUANT	1	Thermo Select
FRAMEWORKVERSION	LABEL	7.9.0	Framework Version
INSTRUMENTVERSION	LABEL	4.60	Instrument Version
COMPLIANCEVOLTAGE	IQUANT	0	Compliance Voltage
CURVE1	TABLE
	Pt	T	Vf	Im	Vu	Sig	Ach	IERange	Over	Temp
	#	s	V vs. Ref.	A	V	V	V	#	bits	deg C
	0	0.02	-4.74436E-004	-7.14709E-008	0.00000E+000	0.00000E+000	6.96743E-004	9	...........	-327.63
	8	0.18	1.55847E-002	5.25941E-009	0.00000E+000	1.60000E-002	6.85910E-004	7	...........	-327.63
	16	0.34	3.15772E-002	5.15108E-009	0.00000E+000	3.20000E-002	6.80910E-004	7	...........	-327.63
	24	0.5	4.75522E-002	5.13441E-009	0.00000E+000	4.80000E-002	6.85076E-004	7	...........	-327.63
	32	0.66	6.35318E-002	5.15941E-009	0.00000E+000	6.40000E-002	6.87576E-004	7	...........	-327.63
	40	0.82	7.95176E-002	5.25108E-009	0.00000E+000	8.00000E-002	6.81743E-004	7	...........	-327.63
	48	0.98	9.55042E-002	5.10524E-009	0.00000E+000	9.60000E-002	6.83410E-004	7	...........	-327.63
	56	1.14	1.11484E-001	5.11358E-009	0.00000E+000	1.12000E-001	6.90910E-004	7	...........	-327.63
	64	1.3	1.27478E-001	5.40109E-009	0.00000E+000	1.28000E-001	6.91743E-004	7	...........	-327.63
	72	1.46	1.43454E-001	5.09274E-009	0.00000E+000	1.44000E-001	6.83410E-004	7	...........	-327.63
	80	1.62	1.59413E-001	5.49692E-009	0.00000E+000	1.60000E-001	6.77576E-004	7	...........	-327.63
	88	1.78	1.75412E-001	5.40109E-009	0.00000E+000	1.76000E-001	6.90076E-004	7	...........	-327.63
	96	1.94	1.91357E-001	5.20525E-009	0.00000E+000	1.92000E-001	6.86743E-004	7	...........	-327.63
	104	2.1	2.07350E-001	5.18441E-009	0.00000E+000	2.08000E-001	6.78410E-004	7	...........	-327.63
	112	2.26	2.23325E-001	4.98440E-009	0.00000E+000	2.24000E-001	6.84243E-004	7	...........	-327.63
	120	2.42	2.39300E-001	5.13858E-009	0.00000E+000	2.40000E-001	6.77576E-004	7	...........	-327.63
	128	2.58	2.55290E-001	5.19691E-009	0.00000E+000	2.56000E-001	6.89243E-004	7	...........	-327.63
	136	2.74	2.71260E-001	4.90940E-009	0.00000E+000	2.72000E-001	6.82576E-004	7	...........	-327.63
	144	2.9	2.87223E-001	5.06357E-009	0.00000E+000	2.88000E-001	6.79243E-004	7	...........	-327.63
	152	3.06	3.03220E-001	4.97607E-009	0.00000E+000	3.04000E-001	6.88410E-004	7	...........	-327.63
	160	3.22	3.19190E-001	4.90107E-009	0.00000E+000	3.20000E-001	6.93410E-004	7	...........	-327.63
	168	3.38	3.35165E-001	5.15941E-009	0.00000E+000	3.36000E-001	6.79243E-004	7	...........	-327.63
	176	3.54	3.51134E-001	5.23441E-009	0.00000E+000	3.52000E-001	6.92576E-004	7	...........	-327.63
	184	3.7	3.67103E-001	5.27191E-009	0.00000E+000	3.68000E-001	6.85076E-004	7	...........	-327.63
	192	3.86	3.83078E-001	5.23441E-009	0.00000E+000	3.84000E-001	6.77576E-004	7	...........	-327.63
	200	4.02	3.99054E-001	4.88440E-009	0.00000E+000	4.00000E-001	6.91743E-004	7	...........	-327.63
	208	4.18	4.15005E-001	5.15941E-009	0.00000E+000	4.16000E-001	6.81743E-004	7	...........	-327.63
	216	4.34	4.30987E-001	5.21358E-009	0.00000E+000	4.32000E-001	6.88410E-004	7	...........	-327.63
	224	4.5	4.46958E-001	5.34275E-009	0.00000E+000	4.48000E-001	6.84243E-004	7	...........	-327.63
	232	4.66	4.62916E-001	5.33025E-009	0.00000E+000	4.64000E-001	6.87576E-004	7	...........	-327.63
	240	4.82	4.78910E-001	5.52192E-009	0.00000E+000	4.80000E-001	6.75910E-004	7	...........	-327.63
	248	4.98	4.94879E-001	5.36775E-009	0.00000E+000	4.96000E-001	6.88410E-004	7	...........	-327.63
	256	5.14	4.86885E-001	5.50942E-009	0.00000E+000	4.88000E-001	6.73410E-004	7	...........	-327.63
	264	5.3	4.70909E-001	5.46776E-009	0.00000E+000	4.72000E-001	6.94243E-004	7	...........	-327.63
	272	5.46	4.54936E-001	5.86777E-009	0.00000E+000	4.56000E-001	6.85076E-004	7	...........	-327.63
	280	5.62	4.38945E-001	5.81777E-009	0.00000E+000	4.40000E-001	6.77576E-004	7	...........	-327.63
	288	5.78	4.22968E-001	5.84694E-009	0.00000E+000	4.24000E-001	6.88410E-004	7	...........	-327.63
	296	5.94	4.07011E-001	5.94694E-009	0.00000E+000	4.08000E-001	6.92576E-004	7	...........	-327.63
	304	6.1	3.91025E-001	5.86777E-009	0.00000E+000	3.92000E-001	6.89243E-004	7	...........	-327.63
	312	6.26	3.75041E-001	5.69693E-009	0.00000E+000	3.76000E-001	6.87576E-004	7	...........	-327.63
	320	6.42	3.59073E-001	5.58859E-009	0.00000E+000	3.60000E-001	6.86743E-004	7	...........	-327.63
	328	6.58	3.43099E-001	5.34692E-009	0.00000E+000	3.44000E-001	6.83410E-004	7	...........	-327.63
	336	6.74	3.27120E-001	5.75110E-009	0.00000E+000	3.28000E-001	6.89243E-004	7	...........	-327.63
	344	6.9	3.11134E-001	5.70110E-009	0.00000E+000	3.12000E-001	6.88410E-004	7	...........	-327.63
	352	7.06	2.95181E-001	5.78027E-009	0.00000E+000	2.96000E-001	6.85076E-004	7	...........	-327.63
	360	7.22	2.79209E-001	6.00944E-009	0.00000E+000	2.80000E-001	6.77576E-004	7	...........	-327.63
	368	7.38	2.63228E-001	5.81777E-009	0.00000E+000	2.64000E-001	6.88410E-004	7	...........	-327.63
	376	7.54	2.47263E-001	5.88444E-009	0.00000E+000	2.48000E-001	6.90910E-004	7	...........	-327.63
	384	7.7	2.31272E-001	5.78443E-009	0.00000E+000	2.32000E-001	6.74243E-004	7	...........	-327.63
	392	7.86	2.15298E-001	5.80110E-009	0.00000E+000	2.16000E-001	7.01743E-004	7	...........	-327.63
	400	8.02	1.99342E-001	5.75943E-009	0.00000E+000	2.00000E-001	6.93410E-004	7	...........	-327.63
	408	8.18	1.83359E-001	5.77193E-009	0.00000E+000	1.84000E-001	6.81743E-004	7	...........	-327.63
	416	8.34	1.67396E-001	5.73443E-009	0.00000E+000	1.68000E-001	6.86743E-004	7	...........	-327.63
	424	8.5	1.51429E-001	5.73860E-009	0.00000E+000	1.52000E-001	6.86743E-004	7	...........	-327.63
	432	8.66	1.35457E-001	5.68860E-009	0.00000E+000	1.36000E-001	6.77576E-004	7	...........	-327.63
	440	8.82	1.19489E-001	5.58443E-009	0.00000E+000	1.20000E-001	6.92576E-004	7	...........	-327.63
	448	8.98	1.03506E-001	5.87194E-009	0.00000E+000	1.04000E-001	6.84243E-004	7	...........	-327.63
	456	9.14	8.75480E-002	5.80944E-009	0.00000E+000	8.80000E-002	6.85910E-004	7	...........	-327.63
	464	9.3	7.15818E-002	5.63860E-009	0.00000E+000	7.20000E-002	6.99243E-004	7	...........	-327.63
	472	9.46	5.56193E-002	5.44692E-009	0.00000E+000	5.60000E-002	6.88410E-004	7	...........	-327.63
	480	9.62	3.96559E-002	5.53859E-009	0.00000E+000	4.00000E-002	6.87576E-004	7	...........	-327.63
	488	9.78	2.36930E-002	5.58443E-009	0.00000E+000	2.40000E-002	6.83410E-004	7	...........	-327.63
	496	9.94	7.72217E-003	5.37609E-009	0.00000E+000	8.00000E-003	6.89243E-004	7	...........	-327.63
	504	10.1	-8.26866E-003	5.21358E-009	0.00000E+000	-8.00000E-003	6.89243E-004	7	...........	-327.63
	512	10.26	-2.42370E-002	5.04691E-009	0.00000E+000	-2.40000E-002	6.80910E-004	7	...........	-327.63
	520	10.42	-4.01841E-002	4.99274E-009	0.00000E+000	-4.00000E-002	7.03410E-004	7	...........	-327.63
	528	10.58	-5.61257E-002	4.77190E-009	0.00000E+000	-5.60000E-002	7.03410E-004	7	...........	-327.63
	536	10.74	-7.20995E-002	4.44272E-009	0.00000E+000	-7.20000E-002	6.78410E-004	7	...........	-327.63
	544	10.9	-8.80653E-002	4.23438E-009	0.00000E+000	-8.80000E-002	6.94243E-004	7	...........	-327.63
	552	11.06	-1.04003E-001	4.34271E-009	0.00000E+000	-1.04000E-001	6.85076E-004	7	...........	-327.63
	560	11.22	-1.19970E-001	4.00937E-009	0.00000E+000	-1.20000E-001	6.88410E-004	7	...........	-327.63
	568	11.38	-1.35939E-001	4.03020E-009	0.00000E+000	-1.36000E-001	6.94243E-004	7	...........	-327.63
	576	11.54	-1.51891E-001	3.73852E-009	0.00000E+000	-1.52000E-001	6.90076E-004	7	...........	-327.63
	584	11.7	-1.67829E-001	3.39268E-009	0.00000E+000	-1.68000E-001	6.92576E-004	7	...........	-327.63
	592	11.86	-1.83784E-001	3.34268E-009	0.00000E+000	-1.84000E-001	6.94243E-004	7	...........	-327.63
	600	12.02	-1.99749E-001	3.33434E-009	0.00000E+000	-2.00000E-001	6.86743E-004	7	...........	-327.63
	608	12.18	-2.15683E-001	2.96766E-009	0.00000E+000	-2.16000E-001	6.95076E-004	7	...........	-327.63
	616	12.34	-2.31627E-001	2.99683E-009	0.00000E+000	-2.32000E-001	6.81743E-004	7	...........	-327.63
	624	12.5	-2.47580E-001	2.70515E-009	0.00000E+000	-2.48000E-001	6.91743E-004	7	...........	-327.63
	632	12.66	-2.63507E-001	2.57598E-009	0.00000E+000	-2.64000E-001	6.94243E-004	7	...........	-327.63
	640	12.82	-2.79458E-001	2.28014E-009	0.00000E+000	-2.80000E-001	6.88410E-004	7	...........	-327.63
	648	12.98	-2.95397E-001	2.07596E-009	0.00000E+000	-2.96000E-001	6.94243E-004	7	...........	-327.63
	656	13.14	-3.11318E-001	1.77178E-009	0.00000E+000	-3.12000E-001	6.93410E-004	7	...........	-327.63
	664	13.3	-3.27263E-001	1.55928E-009	0.00000E+000	-3.28000E-001	6.98410E-004	7	...........	-327.63
	672	13.46	-3.43200E-001	1.30510E-009	0.00000E+000	-3.44000E-001	6.90910E-004	7	...........	-327.63
	680	13.62	-3.59112E-001	1.00509E-009	0.00000E+000	-3.60000E-001	6.95910E-004	7	...........	-327.63
	688	13.78	-3.75050E-001	6.46742E-010	0.00000E+000	-3.76000E-001	6.97576E-004	7	...........	-327.63
	696	13.94	-3.90976E-001	3.96733E-010	0.00000E+000	-3.92000E-001	6.90076E-004	7	...........	-327.63
	704	14.1	-4.06926E-001	1.17556E-010	0.00000E+000	-4.08000E-001	6.91743E-004	7	...........	-327.63
	712	14.26	-4.22834E-001	-1.53287E-010	0.00000E+000	-4.24000E-001	6.90076E-004	7	...........	-327.63
	720	14.42	-4.38763E-001	-4.94967E-010	0.00000E+000	-4.40000E-001	6.97576E-004	7	...........	-327.63
	728	14.58	-4.54700E-001	-6.69973E-010	0.00000E+000	-4.56000E-001	6.74243E-004	7	...........	-327.63
	736	14.74	-4.70618E-001	-1.11166E-009	0.00000E+000	-4.72000E-001	7.03410E-004	7	...........	-327.63
	744	14.9	-4.86568E-001	-1.29500E-009	0.00000E+000	-4.88000E-001	6.89243E-004	7	...........	-327.63
	750	15.02	-4.98522E-001	-1.46584E-009	0.00000E+000	-5.00000E-001	6.99243E-004	7	...........	-327.63
CURVE2	TABLE
	Pt	T	Vf	Im	Vu	Sig	Ach	IERange	Over	Temp
	#	s	V vs. Ref.	A	V	V	V	#	bits	deg C
	751	15.04	-4.96517E-001	-1.48667E-009	0.00000E+000	-4.98000E-001	6.41743E-004	7	...........	-327.63
	762	15.26	-4.74490E-001	-1.89502E-009	0.00000E+000	-4.76000E-001	6.95910E-004	7	...........	-327.63
	773	15.48	-4.52472E-001	-1.92835E-009	0.00000E+000	-4.54000E-001	6.37576E-004	7	...........	-327.63
	784	15.7	-4.30418E-001	-2.42421E-009	0.00000E+000	-4.32000E-001	6.84243E-004	7	...........	-327.63
	795	15.92	-4.08399E-001	-2.77005E-009	0.00000E+000	-4.10000E-001	6.43410E-004	7	...........	-327.63
	806	16.14	-3.86347E-001	-3.07006E-009	0.00000E+000	-3.88000E-001	6.90910E-004	7	...........	-327.63
	817	16.36	-3.64320E-001	-3.49925E-009	0.00000E+000	-3.66000E-001	6.37576E-004	7	...........	-327.63
	828	16.58	-3.42287E-001	-3.89093E-009	0.00000E+000	-3.44000E-001	6.95910E-004	7	...........	-327.63
	839	16.8	-3.20256E-001	-4.52428E-009	0.00000E+000	-3.22000E-001	6.53410E-004	7	...........	-327.63
	850	17.02	-2.98224E-001	-4.61595E-009	0.00000E+000	-3.00000E-001	6.84243E-004	7	...........	-327.63
	861	17.24	-2.76197E-001	-5.15347E-009	0.00000E+000	-2.78000E-001	6.40076E-004	7	...........	-327.63
	872	17.46	-2.54160E-001	-5.77016E-009	0.00000E+000	-2.56000E-001	6.87576E-004	7	...........	-327.63
	883	17.68	-2.32135E-001	-6.22018E-009	0.00000E+000	-2.34000E-001	6.45076E-004	7	...........	-327.63
	894	17.9	-2.10099E-001	-6.97021E-009	0.00000E+000	-2.12000E-001	7.00076E-004	7	...........	-327.63
	905	18.12	-1.88099E-001	-7.34105E-009	0.00000E+000	-1.90000E-001	6.43410E-004	7	...........	-327.63
	916	18.34	-1.66080E-001	-7.67023E-009	0.00000E+000	-1.68000E-001	6.91743E-004	7	...........	-327.63
	927	18.56	-1.44060E-001	-8.10358E-009	0.00000E+000	-1.46000E-001	6.39243E-004	7	...........	-327.63
	938	18.78	-1.22048E-001	-8.27026E-009	0.00000E+000	-1.24000E-001	6.87576E-004	7	...........	-327.63
	949	19	-1.00081E-001	-8.23692E-009	0.00000E+000	-1.02000E-001	6.50076E-004	7	...........	-327.63
	960	19.22	-7.80982E-002	-8.37443E-009	0.00000E+000	-8.00000E-002	6.89243E-004	7	...........	-327.63
	971	19.44	-5.61182E-002	-8.60777E-009	0.00000E+000	-5.80000E-002	6.46743E-004	7	...........	-327.63
	982	19.66	-3.41507E-002	-8.67860E-009	0.00000E+000	-3.60000E-002	6.92576E-004	7	...........	-327.63
	993	19.88	-1.21774E-002	-8.75361E-009	0.00000E+000	-1.40000E-002	6.45076E-004	7	...........	-327.63
	1004	20.1	9.80176E-003	-8.99112E-009	0.00000E+000	8.00000E-003	6.75076E-004	7	...........	-327.63
	1015	20.32	3.18018E-002	-9.10362E-009	0.00000E+000	3.00000E-002	6.39243E-004	7	...........	-327.63
	1026	20.54	5.37763E-002	-9.23279E-009	0.00000E+000	5.20000E-002	6.85076E-004	7	...........	-327.63
	1037	20.76	7.57430E-002	-9.32863E-009	0.00000E+000	7.40000E-002	6.40076E-004	7	...........	-327.63
	1048	20.98	9.77034E-002	-9.50364E-009	0.00000E+000	9.60000E-002	6.85910E-004	7	...........	-327.63
	1059	21.2	1.19638E-001	-9.42030E-009	0.00000E+000	1.18000E-001	6.37576E-004	7	...........	-327.63
	1070	21.42	1.41600E-001	-9.53697E-009	0.00000E+000	1.40000E-001	4.20910E-004	7	...........	-327.63
	1081	21.64	1.63547E-001	-9.43280E-009	0.00000E+000	1.62000E-001	4.32576E-004	7	...........	-327.63
	1092	21.86	1.85475E-001	-9.15362E-009	0.00000E+000	1.84000E-001	4.30910E-004	7	...........	-327.63
	1103	22.08	2.07428E-001	-9.23696E-009	0.00000E+000	2.06000E-001	4.35076E-004	7	...........	-327.63
	1114	22.3	2.29376E-001	-9.28279E-009	0.00000E+000	2.28000E-001	4.40910E-004	7	...........	-327.63
	1125	22.52	2.51323E-001	-9.37446E-009	0.00000E+000	2.50000E-001	4.46743E-004	7	...........	-327.63
	1136	22.74	2.73283E-001	-9.27029E-009	0.00000E+000	2.72000E-001	4.06743E-004	7	...........	-327.63
	1147	22.96	2.95237E-001	-9.26613E-009	0.00000E+000	2.94000E-001	4.40076E-004	7	...........	-327.63
	1158	23.18	3.17159E-001	-9.27863E-009	0.00000E+000	3.16000E-001	4.48410E-004	7	...........	-327.63
	1169	23.4	3.39118E-001	-9.08279E-009	0.00000E+000	3.38000E-001	4.36743E-004	7	...........	-327.63
	1180	23.62	3.61051E-001	-8.97445E-009	0.00000E+000	3.60000E-001	4.27576E-004	7	...........	-327.63
	1191	23.84	3.82996E-001	-8.99945E-009	0.00000E+000	3.82000E-001	4.27576E-004	7	...........	-327.63
	1202	24.06	4.04923E-001	-9.05362E-009	0.00000E+000	4.04000E-001	4.40910E-004	7	...........	-327.63
	1213	24.28	4.26850E-001	-8.82444E-009	0.00000E+000	4.26000E-001	4.21743E-004	7	...........	-327.63
	1224	24.5	4.48785E-001	-8.76611E-009	0.00000E+000	4.48000E-001	4.40910E-004	7	...........	-327.63
	1235	24.72	4.70717E-001	-8.66610E-009	0.00000E+000	4.70000E-001	4.23410E-004	7	...........	-327.63
	1246	24.94	4.92655E-001	-8.64944E-009	0.00000E+000	4.92000E-001	4.55076E-004	7	...........	-327.63
	1257	25.16	4.86604E-001	-8.45360E-009	0.00000E+000	4.86000E-001	4.20076E-004	7	...........	-327.63
	1268	25.38	4.64610E-001	-8.39943E-009	0.00000E+000	4.64000E-001	4.57576E-004	7	...........	-327.63
	1279	25.6	4.42603E-001	-8.16609E-009	0.00000E+000	4.42000E-001	4.20910E-004	7	...........	-327.63
	1290	25.82	4.20591E-001	-7.83274E-009	0.00000E+000	4.20000E-001	4.37576E-004	7	...........	-327.63
	1301	26.04	3.98648E-001	-7.89524E-009	0.00000E+000	3.98000E-001	4.22576E-004	7	...........	-327.63
	1312	26.26	3.76712E-001	-7.49939E-009	0.00000E+000	3.76000E-001	4.34243E-004	7	...........	-327.63
	1323	26.48	3.54611E-001	-7.01188E-009	0.00000E+000	3.54000E-001	4.50076E-004	7	...........	-327.63
	1334	26.7	3.32532E-001	-6.82020E-009	0.00000E+000	3.32000E-001	4.31743E-004	7	...........	-327.63
[...]
	2750	55.02	-4.97270E-001	9.14289E-009	0.00000E+000	-5.00000E-001	4.45910E-004	7	...........	-327.63
CURVE4	TABLE
	Pt	T	Vf	Im	Vu	Sig	Ach	IERange	Over	Temp
	#	s	V vs. Ref.	A	V	V	V	#	bits	deg C
	2751	55.04	-4.95270E-001	8.90955E-009	0.00000E+000	-4.98000E-001	4.34243E-004	7	...........	-327.63
	2754	55.1	-4.89268E-001	9.06789E-009	0.00000E+000	-4.92000E-001	4.60076E-004	7	...........	-327.63
	2757	55.16	-4.83292E-001	9.17623E-009	0.00000E+000	-4.86000E-001	4.60076E-004	7	...........	-327.63
	2760	55.22	-4.77312E-001	8.92205E-009	0.00000E+000	-4.80000E-001	4.36743E-004	7	...........	-327.63
	2763	55.28	-4.71307E-001	9.10956E-009	0.00000E+000	-4.74000E-001	4.47576E-004	7	...........	-327.63
	2766	55.34	-4.65323E-001	9.06789E-009	0.00000E+000	-4.68000E-001	4.55910E-004	7	...........	-327.63
	2769	55.4	-4.59353E-001	9.02622E-009	0.00000E+000	-4.62000E-001	4.62576E-004	7	...........	-327.63
	2772	55.46	-4.53347E-001	9.08039E-009	0.00000E+000	-4.56000E-001	4.55076E-004	7	...........	-327.63
	2775	55.52	-4.47373E-001	9.16789E-009	0.00000E+000	-4.50000E-001	4.76743E-004	7	...........	-327.63
	2778	55.58	-4.41371E-001	9.12623E-009	0.00000E+000	-4.44000E-001	4.44243E-004	7	...........	-327.63
	2781	55.64	-4.35380E-001	9.14289E-009	0.00000E+000	-4.38000E-001	4.60910E-004	7	...........	-327.63
	2784	55.7	-4.29401E-001	9.15956E-009	0.00000E+000	-4.32000E-001	4.51743E-004	7	...........	-327.63
	2787	55.76	-4.23403E-001	9.38457E-009	0.00000E+000	-4.26000E-001	4.60076E-004	7	...........	-327.63
	2790	55.82	-4.17411E-001	9.28873E-009	0.00000E+000	-4.20000E-001	4.42576E-004	7	...........	-327.63
	2793	55.88	-4.11430E-001	9.53874E-009	0.00000E+000	-4.14000E-001	4.65910E-004	7	...........	-327.63
	2796	55.94	-4.05464E-001	9.64708E-009	0.00000E+000	-4.08000E-001	4.43410E-004	7	...........	-327.63
	2799	56	-3.99478E-001	9.46374E-009	0.00000E+000	-4.02000E-001	4.65076E-004	7	...........	-327.63
	2802	56.06	-3.93482E-001	9.42207E-009	0.00000E+000	-3.96000E-001	4.57576E-004	7	...........	-327.63
	2805	56.12	-3.87492E-001	9.40540E-009	0.00000E+000	-3.90000E-001	4.45910E-004	7	...........	-327.63
	2808	56.18	-3.81512E-001	9.63874E-009	0.00000E+000	-3.84000E-001	4.56743E-004	7	...........	-327.63
	2811	56.24	-3.75522E-001	9.51791E-009	0.00000E+000	-3.78000E-001	4.20076E-004	7	...........	-327.63
	2814	56.3	-3.69528E-001	9.39707E-009	0.00000E+000	-3.72000E-001	4.40076E-004	7	...........	-327.63
	2817	56.36	-3.63547E-001	9.40957E-009	0.00000E+000	-3.66000E-001	4.25910E-004	7	...........	-327.63
	2820	56.42	-3.57573E-001	9.50541E-009	0.00000E+000	-3.60000E-001	4.55076E-004	7	...........	-327.63
	2823	56.48	-3.51577E-001	9.49291E-009	0.00000E+000	-3.54000E-001	4.54243E-004	7	...........	-327.63
	2826	56.54	-3.45588E-001	9.55957E-009	0.00000E+000	-3.48000E-001	4.46743E-004	7	...........	-327.63
	2829	56.6	-3.39597E-001	9.67625E-009	0.00000E+000	-3.42000E-001	4.25076E-004	7	...........	-327.63
	2832	56.66	-3.33607E-001	9.56791E-009	0.00000E+000	-3.36000E-001	4.55910E-004	7	...........	-327.63
	2835	56.72	-3.27624E-001	9.48457E-009	0.00000E+000	-3.30000E-001	4.22576E-004	7	...........	-327.63
	2838	56.78	-3.21630E-001	9.46374E-009	0.00000E+000	-3.24000E-001	4.53410E-004	7	...........	-327.63
	2841	56.84	-3.15651E-001	9.60541E-009	0.00000E+000	-3.18000E-001	4.38410E-004	7	...........	-327.63
	2844	56.9	-3.09655E-001	9.74708E-009	0.00000E+000	-3.12000E-001	4.71743E-004	7	...........	-327.63
	2847	56.96	-3.03678E-001	9.78042E-009	0.00000E+000	-3.06000E-001	4.51743E-004	7	...........	-327.63
	2850	57.02	-2.97692E-001	9.73458E-009	0.00000E+000	-3.00000E-001	4.32576E-004	7	...........	-327.63
	2853	57.08	-2.91710E-001	9.79292E-009	0.00000E+000	-2.94000E-001	4.68410E-004	7	...........	-327.63
	2856	57.14	-2.85710E-001	9.73875E-009	0.00000E+000	-2.88000E-001	4.61743E-004	7	...........	-327.63
	2859	57.2	-2.79726E-001	9.70125E-009	0.00000E+000	-2.82000E-001	4.65910E-004	7	...........	-327.63
	2862	57.26	-2.73739E-001	9.74708E-009	0.00000E+000	-2.76000E-001	4.49243E-004	7	...........	-327.63
	2865	57.32	-2.67746E-001	9.90125E-009	0.00000E+000	-2.70000E-001	4.43410E-004	7	...........	-327.63
	2868	57.38	-2.61762E-001	9.98042E-009	0.00000E+000	-2.64000E-001	4.45910E-004	7	...........	-327.63
	2871	57.44	-2.55789E-001	9.79708E-009	0.00000E+000	-2.58000E-001	4.45076E-004	7	...........	-327.63
	2874	57.5	-2.49798E-001	1.00346E-008	0.00000E+000	-2.52000E-001	4.44243E-004	7	...........	-327.63
	2877	57.56	-2.43791E-001	1.01346E-008	0.00000E+000	-2.46000E-001	4.50076E-004	7	...........	-327.63
	2880	57.62	-2.37811E-001	1.01388E-008	0.00000E+000	-2.40000E-001	4.51743E-004	7	...........	-327.63
	2883	57.68	-2.31824E-001	1.00971E-008	0.00000E+000	-2.34000E-001	4.41743E-004	7	...........	-327.63
	2886	57.74	-2.25843E-001	1.02138E-008	0.00000E+000	-2.28000E-001	4.58410E-004	7	...........	-327.63
	2889	57.8	-2.19844E-001	1.00304E-008	0.00000E+000	-2.22000E-001	4.61743E-004	7	...........	-327.63
	2892	57.86	-2.13854E-001	1.02471E-008	0.00000E+000	-2.16000E-001	4.59243E-004	7	...........	-327.63
	2895	57.92	-2.07864E-001	1.00679E-008	0.00000E+000	-2.10000E-001	4.47576E-004	7	...........	-327.63
	2898	57.98	-2.01890E-001	1.03096E-008	0.00000E+000	-2.04000E-001	4.61743E-004	7	...........	-327.63
	2901	58.04	-1.95899E-001	1.04221E-008	0.00000E+000	-1.98000E-001	4.49243E-004	7	...........	-327.63
	2904	58.1	-1.89922E-001	1.03554E-008	0.00000E+000	-1.92000E-001	4.58410E-004	7	...........	-327.63
	2907	58.16	-1.83924E-001	1.03429E-008	0.00000E+000	-1.86000E-001	4.44243E-004	7	...........	-327.63
	2910	58.22	-1.77947E-001	1.02013E-008	0.00000E+000	-1.80000E-001	4.49243E-004	7	...........	-327.63
	2913	58.28	-1.71946E-001	1.01179E-008	0.00000E+000	-1.74000E-001	4.55076E-004	7	...........	-327.63
	2916	58.34	-1.65947E-001	1.01388E-008	0.00000E+000	-1.68000E-001	4.47576E-004	7	...........	-327.63
	2919	58.4	-1.59958E-001	1.02929E-008	0.00000E+000	-1.62000E-001	4.27576E-004	7	...........	-327.63
	2922	58.46	-1.53987E-001	1.04971E-008	0.00000E+000	-1.56000E-001	4.35910E-004	7	...........	-327.63
	2925	58.52	-1.48002E-001	1.03638E-008	0.00000E+000	-1.50000E-001	4.26743E-004	7	...........	-327.63
	2928	58.58	-1.42010E-001	1.03971E-008	0.00000E+000	-1.44000E-001	4.42576E-004	7	...........	-327.63
	2931	58.64	-1.36007E-001	1.04388E-008	0.00000E+000	-1.38000E-001	4.54243E-004	7	...........	-327.63
	2934	58.7	-1.30040E-001	1.06263E-008	0.00000E+000	-1.32000E-001	4.45910E-004	7	...........	-327.63
	2937	58.76	-1.24040E-001	1.04679E-008	0.00000E+000	-1.26000E-001	4.55910E-004	7	...........	-327.63
	2940	58.82	-1.18052E-001	1.04763E-008	0.00000E+000	-1.20000E-001	4.45076E-004	7	...........	-327.63
	2943	58.88	-1.12057E-001	1.04388E-008	0.00000E+000	-1.14000E-001	4.50910E-004	7	...........	-327.63
	2946	58.94	-1.06073E-001	1.05054E-008	0.00000E+000	-1.08000E-001	4.47576E-004	7	...........	-327.63
	2949	59	-1.00098E-001	1.06138E-008	0.00000E+000	-1.02000E-001	4.40076E-004	7	...........	-327.63
	2952	59.06	-9.41137E-002	1.04971E-008	0.00000E+000	-9.60000E-002	4.46743E-004	7	...........	-327.63
	2955	59.12	-8.81266E-002	1.05638E-008	0.00000E+000	-9.00000E-002	4.67576E-004	7	...........	-327.63
	2958	59.18	-8.21307E-002	1.06846E-008	0.00000E+000	-8.40000E-002	4.46743E-004	7	...........	-327.63
	2961	59.24	-7.61474E-002	1.06554E-008	0.00000E+000	-7.80000E-002	4.77576E-004	7	...........	-327.63
	2964	59.3	-7.01516E-002	1.09430E-008	0.00000E+000	-7.20000E-002	4.38410E-004	7	...........	-327.63
	2967	59.36	-6.41616E-002	1.07846E-008	0.00000E+000	-6.60000E-002	4.51743E-004	7	...........	-327.63
	2970	59.42	-5.81799E-002	1.08638E-008	0.00000E+000	-6.00000E-002	4.61743E-004	7	...........	-327.63
	2973	59.48	-5.21745E-002	1.08680E-008	0.00000E+000	-5.40000E-002	4.60910E-004	7	...........	-327.63
	2976	59.54	-4.61966E-002	1.09221E-008	0.00000E+000	-4.80000E-002	4.46743E-004	7	...........	-327.63
	2979	59.6	-4.02107E-002	1.09888E-008	0.00000E+000	-4.20000E-002	4.48410E-004	7	...........	-327.63
	2982	59.66	-3.42270E-002	1.09013E-008	0.00000E+000	-3.60000E-002	4.63410E-004	7	...........	-327.63
	2985	59.72	-2.82412E-002	1.10013E-008	0.00000E+000	-3.00000E-002	4.55076E-004	7	...........	-327.63
	2988	59.78	-2.22720E-002	1.10763E-008	0.00000E+000	-2.40000E-002	4.55910E-004	7	...........	-327.63
	2991	59.84	-1.62807E-002	1.11096E-008	0.00000E+000	-1.80000E-002	4.68410E-004	7	...........	-327.63
	2994	59.9	-1.02991E-002	1.10721E-008	0.00000E+000	-1.20000E-002	4.43410E-004	7	...........	-327.63
	2997	59.96	-4.30991E-003	1.13930E-008	0.00000E+000	-6.00000E-003	4.59243E-004	7	...........	-327.63
	3000	60.02	1.67592E-003	1.12763E-008	0.00000E+000	0.00000E+000	4.57576E-004	7	...........	-327.63