File: Gamry/CV_smallGrid_newBuffer_4.DTA
EXPLAIN
TAG	CV
TITLE	LABEL	Cyclic Voltammetry	Test &Identifier
DATE	LABEL	5-12-2022	Date
TIME	LABEL	13:16:01	Time
NOTES	NOTES	1	&Notes...

PSTAT	PSTAT	REF3000-20110	Potentiostat
VINIT	POTEN	0.00000E+000	F	Initial &E (V)
VLIMIT1	POTEN	5.00000E-001	F	Scan Limit &1 (V)
VLIMIT2	POTEN	-5.00000E-001	F	Scan Limit &2 (V)
VFINAL	POTEN	0.00000E+000	F	Final &E (V)
SCANRATE	QUANT	9.99998E+001	&Scan Rate (mV/s)
STEPSIZE	QUANT	2.00000E+000	St&ep Size (mV)
CYCLES	IQUANT	3	C&ycles (#)
IMODE	SELECTOR	0	I/E Range &Mode
IRANGE	QUANT	3.00000E-001	&Max Current (mA)
AREA	QUANT	1.00000E+000	Electrode &Area (cm^2)
ELECTRODETYPE	SELECTOR	0	Electrode Type
STRIPPING	TOGGLE	F	Used for Stripping
CONDIT	TWOPARAM	F	1.50000E+001	0.00000E+000	Conditionin&g	Time(s)	E(V)
DELAY	TWOPARAM	F	3.00000E+001	0.00000E+000	Init. De&lay	Time(s)	Stab.(mV/s)
EQDELAY	QUANT	0.00000E+000	Equil. &Time (s)
IRCOMP	SELECTOR	0	IRCom&p
PFCOR	QUANT	5.00000E+001	PF Corr. (ohm)
SAMPLINGMODE	SELECTOR	1	Sampling &Mode
EOC	QUANT	0	Open Circuit (V)
PSTATMODEL	IQUANT	5	Pstat Model
PSTATSECTION	LABEL	REF3000-20110	Pstat Section
PSTATSERIALNO	LABEL	20110	Pstat Serial Number
CTRLMODE	IQUANT	1	Control Mode
ELECTROMETER	IQUANT	0	RE=0 or CS=1
IESTAB	IQUANT	2	I/E Stability
CASPEED	IQUANT	4	Control Amp Speed
CONVENTION	IQUANT	1	Current Convention
ICHRANGE	IQUANT	2	Ich Range
ICHRANGEMODE	TOGGLE	F	Ich Auto Range
ICHOFFSETENABLE	TOGGLE	F	Ich Offset Enable
ICHOFFSET	QUANT	0	Ich Offset (V)
ICHFILTER	IQUANT	2	Ich Filter
VCHRANGE	IQUANT	2	Vch Range
VCHRANGEMODE	TOGGLE	F	Vch Auto Range
VCHOFFSETENABLE	TOGGLE	F	Vch Offset Enable
VCHOFFSET	QUANT	0	Vch Offset (V)
VCHFILTER	IQUANT	2	Vch Filter
ACHRANGE	IQUANT	2	Ach Range
ACHOFFSETENABLE	TOGGLE	F	Ach Offset Enable
ACHOFFSET	QUANT	0	Ach Offset (V)
ACHFILTER	IQUANT	1	Ach Filter
IERANGELOWERLIMIT	IQUANT	2	I/E Range Lower Limit
IERANGEMODE	TOGGLE	T	I/E AutoRange
IERANGE	IQUANT	9	I/E Range
POSFEEDENABLE	TOGGLE	F	Positive Feedback IR Comp
POSFEEDRESISTANCE	QUANT	0	Positive Feedback Resistance (ohm)
ACHSELECT	IQUANT	4	Ach Select
SENSECABLEID	IQUANT	14	Sense Cable ID
PWRCABLEID	IQUANT	7	Power Cable ID
DCCALDATE	LABEL	8/9/2022	DC Calibration Date
ACCALDATE	LABEL	8/9/2022	AC Calibration Date
THERMOSELECT	IQUANT	1	Thermo Select
FRAMEWORKVERSION	LABEL	7.9.0	Framework Version
INSTRUMENTVERSION	LABEL	4.60	Instrument Version
COMPLIANCEVOLTAGE	IQUANT	0	Compliance Voltage
CURVE1	TABLE
	Pt	T	Vf	Im	Vu	Sig	Ach	IERange	Over	Temp
	#	s	V vs. Ref.	A	V	V	V	#	bits	deg C
	0	0.02	7.96814E-004	-5.80947E-008	0.00000E+000	0.00000E+000	6.63410E-004	9	...........	-327.63
	8	0.18	1.68876E-002	-5.09097E-009	0.00000E+000	1.60000E-002	6.38410E-004	7	...........	-327.63
	16	0.34	3.28522E-002	-5.44932E-009	0.00000E+000	3.20000E-002	6.37576E-004	7	...........	-327.63
	24	0.5	4.88426E-002	-5.12847E-009	0.00000E+000	4.80000E-002	6.35910E-004	7	...........	-327.63
	32	0.66	6.47913E-002	-5.01180E-009	0.00000E+000	6.40000E-002	6.45076E-004	7	...........	-327.63
	40	0.82	8.06884E-002	-4.54512E-009	0.00000E+000	8.00000E-002	6.37576E-004	7	...........	-327.63
	48	0.98	9.67076E-002	-5.17431E-009	0.00000E+000	9.60000E-002	6.36743E-004	7	...........	-327.63
	56	1.14	1.12674E-001	-5.35765E-009	0.00000E+000	1.12000E-001	6.37576E-004	7	...........	-327.63
	64	1.3	1.28630E-001	-5.30765E-009	0.00000E+000	1.28000E-001	6.40910E-004	7	...........	-327.63
	72	1.46	1.44627E-001	-5.06597E-009	0.00000E+000	1.44000E-001	6.39243E-004	7	...........	-327.63
	80	1.62	1.60534E-001	-4.91596E-009	0.00000E+000	1.60000E-001	6.45910E-004	7	...........	-327.63
	88	1.78	1.76592E-001	-5.16181E-009	0.00000E+000	1.76000E-001	6.54243E-004	7	...........	-327.63
	96	1.94	1.92541E-001	-5.04097E-009	0.00000E+000	1.92000E-001	6.55076E-004	7	...........	-327.63
	104	2.1	2.08517E-001	-4.91596E-009	0.00000E+000	2.08000E-001	6.38410E-004	7	...........	-327.63
	112	2.26	2.24498E-001	-4.69096E-009	0.00000E+000	2.24000E-001	6.48410E-004	7	...........	-327.63
	120	2.42	2.40465E-001	-4.82429E-009	0.00000E+000	2.40000E-001	6.39243E-004	7	...........	-327.63
	128	2.58	2.56428E-001	-4.92430E-009	0.00000E+000	2.56000E-001	6.59243E-004	7	...........	-327.63
	136	2.74	2.72569E-001	-4.81179E-009	0.00000E+000	2.72000E-001	6.64243E-004	7	...........	-327.63
	144	2.9	2.88437E-001	-4.76596E-009	0.00000E+000	2.88000E-001	6.33410E-004	7	...........	-327.63
	152	3.06	3.04430E-001	-4.71179E-009	0.00000E+000	3.04000E-001	6.46743E-004	7	...........	-327.63
	160	3.22	3.20369E-001	-4.88680E-009	0.00000E+000	3.20000E-001	6.50910E-004	7	...........	-327.63
	168	3.38	3.36323E-001	-4.72429E-009	0.00000E+000	3.36000E-001	6.30910E-004	7	...........	-327.63
	176	3.54	3.52309E-001	-4.54095E-009	0.00000E+000	3.52000E-001	6.35910E-004	7	...........	-327.63
	184	3.7	3.68248E-001	-4.42428E-009	0.00000E+000	3.68000E-001	6.52576E-004	7	...........	-327.63
	192	3.86	3.84211E-001	-4.51595E-009	0.00000E+000	3.84000E-001	6.30076E-004	7	...........	-327.63
	200	4.02	4.00174E-001	-4.54928E-009	0.00000E+000	4.00000E-001	6.40076E-004	7	...........	-327.63
	208	4.18	4.16112E-001	-4.42845E-009	0.00000E+000	4.16000E-001	6.33410E-004	7	...........	-327.63
	216	4.34	4.32080E-001	-4.27011E-009	0.00000E+000	4.32000E-001	6.21743E-004	7	...........	-327.63
	224	4.5	4.48034E-001	-4.15344E-009	0.00000E+000	4.48000E-001	6.57576E-004	7	...........	-327.63
	232	4.66	4.63986E-001	-4.07010E-009	0.00000E+000	4.64000E-001	6.41743E-004	7	...........	-327.63
	240	4.82	4.79959E-001	-4.14094E-009	0.00000E+000	4.80000E-001	6.37576E-004	7	...........	-327.63
	248	4.98	4.95918E-001	-3.96176E-009	0.00000E+000	4.96000E-001	6.36743E-004	7	...........	-327.63
	256	5.14	4.87901E-001	-3.67008E-009	0.00000E+000	4.88000E-001	6.39243E-004	7	...........	-327.63
	264	5.3	4.71897E-001	-3.74925E-009	0.00000E+000	4.72000E-001	6.40910E-004	7	...........	-327.63
	272	5.46	4.55921E-001	-3.77009E-009	0.00000E+000	4.56000E-001	6.47576E-004	7	...........	-327.63
	280	5.62	4.39913E-001	-3.55758E-009	0.00000E+000	4.40000E-001	6.28410E-004	7	...........	-327.63
	288	5.78	4.23923E-001	-3.17423E-009	0.00000E+000	4.24000E-001	6.46743E-004	7	...........	-327.63
	296	5.94	4.07933E-001	-3.18257E-009	0.00000E+000	4.08000E-001	6.35076E-004	7	...........	-327.63
	304	6.1	3.91914E-001	-3.08256E-009	0.00000E+000	3.92000E-001	6.39243E-004	7	...........	-327.63
	312	6.26	3.75907E-001	-2.99089E-009	0.00000E+000	3.76000E-001	6.53410E-004	7	...........	-327.63
	320	6.42	3.59894E-001	-2.87422E-009	0.00000E+000	3.60000E-001	6.46743E-004	7	...........	-327.63
	328	6.58	3.43902E-001	-2.73672E-009	0.00000E+000	3.44000E-001	6.48410E-004	7	...........	-327.63
	336	6.74	3.27908E-001	-2.60338E-009	0.00000E+000	3.28000E-001	6.46743E-004	7	...........	-327.63
	344	6.9	3.11860E-001	-2.22420E-009	0.00000E+000	3.12000E-001	6.48410E-004	7	...........	-327.63
	352	7.06	2.95869E-001	-1.93252E-009	0.00000E+000	2.96000E-001	6.35910E-004	7	...........	-327.63
	360	7.22	2.79870E-001	-1.62834E-009	0.00000E+000	2.80000E-001	6.37576E-004	7	...........	-327.63
	368	7.38	2.63841E-001	-1.42833E-009	0.00000E+000	2.64000E-001	6.40076E-004	7	...........	-327.63
	376	7.54	2.47821E-001	-1.05749E-009	0.00000E+000	2.48000E-001	6.56743E-004	7	...........	-327.63
	384	7.7	2.31776E-001	-6.11638E-010	0.00000E+000	2.32000E-001	6.45076E-004	7	...........	-327.63
	392	7.86	2.15747E-001	-2.24123E-010	0.00000E+000	2.16000E-001	6.20076E-004	7	...........	-327.63
	400	8.02	1.99719E-001	3.34231E-010	0.00000E+000	2.00000E-001	6.35910E-004	7	...........	-327.63
	408	8.18	1.83688E-001	5.88407E-010	0.00000E+000	1.84000E-001	6.36743E-004	7	...........	-327.63
	416	8.34	1.67648E-001	8.13415E-010	0.00000E+000	1.68000E-001	6.35076E-004	7	...........	-327.63
	424	8.5	1.51607E-001	9.09252E-010	0.00000E+000	1.52000E-001	6.45910E-004	7	...........	-327.63
	432	8.66	1.35564E-001	1.44261E-009	0.00000E+000	1.36000E-001	6.29243E-004	7	...........	-327.63
	440	8.82	1.19569E-001	1.74678E-009	0.00000E+000	1.20000E-001	6.44243E-004	7	...........	-327.63
	448	8.98	1.03528E-001	1.90096E-009	0.00000E+000	1.04000E-001	6.28410E-004	7	...........	-327.63
	456	9.14	8.74772E-002	2.28014E-009	0.00000E+000	8.80000E-002	6.37576E-004	7	...........	-327.63
	464	9.3	7.15338E-002	2.67598E-009	0.00000E+000	7.20000E-002	6.31743E-004	7	...........	-327.63
	472	9.46	5.55934E-002	3.04267E-009	0.00000E+000	5.60000E-002	6.23410E-004	7	...........	-327.63
	480	9.62	3.96030E-002	3.50935E-009	0.00000E+000	4.00000E-002	6.45910E-004	7	...........	-327.63
	488	9.78	2.35159E-002	4.01770E-009	0.00000E+000	2.40000E-002	6.38410E-004	7	...........	-327.63
	496	9.94	7.44051E-003	4.62606E-009	0.00000E+000	8.00000E-003	6.24243E-004	7	...........	-327.63
	504	10.1	-8.63991E-003	5.21775E-009	0.00000E+000	-8.00000E-003	6.35910E-004	7	...........	-327.63
	512	10.26	-2.47499E-002	5.58026E-009	0.00000E+000	-2.40000E-002	6.30076E-004	7	...........	-327.63
	520	10.42	-4.08807E-002	6.22195E-009	0.00000E+000	-4.00000E-002	6.27576E-004	7	...........	-327.63
	528	10.58	-5.69503E-002	6.98865E-009	0.00000E+000	-5.60000E-002	6.47576E-004	7	...........	-327.63
	536	10.74	-7.30724E-002	7.63034E-009	0.00000E+000	-7.20000E-002	6.52576E-004	7	...........	-327.63
	544	10.9	-8.91324E-002	8.41370E-009	0.00000E+000	-8.80000E-002	6.50910E-004	7	...........	-327.63
	552	11.06	-1.05197E-001	9.23873E-009	0.00000E+000	-1.04000E-001	6.47576E-004	7	...........	-327.63
	560	11.22	-1.21437E-001	1.00596E-008	0.00000E+000	-1.20000E-001	6.43410E-004	7	...........	-327.63
	568	11.38	-1.37518E-001	1.02846E-008	0.00000E+000	-1.36000E-001	6.43410E-004	7	...........	-327.63
	576	11.54	-1.53579E-001	1.06679E-008	0.00000E+000	-1.52000E-001	6.28410E-004	7	...........	-327.63
	584	11.7	-1.69642E-001	1.10763E-008	0.00000E+000	-1.68000E-001	6.43410E-004	7	...........	-327.63
	592	11.86	-1.85699E-001	1.16847E-008	0.00000E+000	-1.84000E-001	6.42576E-004	7	...........	-327.63
	600	12.02	-2.01774E-001	1.21430E-008	0.00000E+000	-2.00000E-001	6.23410E-004	7	...........	-327.63
	608	12.18	-2.17832E-001	1.28597E-008	0.00000E+000	-2.16000E-001	6.50076E-004	7	...........	-327.63
	616	12.34	-2.33901E-001	1.33222E-008	0.00000E+000	-2.32000E-001	6.54243E-004	7	...........	-327.63
	624	12.5	-2.49984E-001	1.39639E-008	0.00000E+000	-2.48000E-001	6.31743E-004	7	...........	-327.63
	632	12.66	-2.66014E-001	1.46556E-008	0.00000E+000	-2.64000E-001	6.62576E-004	7	...........	-327.63
	640	12.82	-2.82057E-001	1.51765E-008	0.00000E+000	-2.80000E-001	6.28410E-004	7	...........	-327.63
	648	12.98	-2.98107E-001	1.53306E-008	0.00000E+000	-2.96000E-001	6.45910E-004	7	...........	-327.63
	656	13.14	-3.14089E-001	1.60932E-008	0.00000E+000	-3.12000E-001	6.53410E-004	7	...........	-327.63
	664	13.3	-3.30209E-001	1.65015E-008	0.00000E+000	-3.28000E-001	6.36743E-004	7	...........	-327.63
	672	13.46	-3.46215E-001	1.67015E-008	0.00000E+000	-3.44000E-001	6.63410E-004	7	...........	-327.63
	680	13.62	-3.62199E-001	1.72224E-008	0.00000E+000	-3.60000E-001	6.50910E-004	7	...........	-327.63
	688	13.78	-3.78194E-001	1.71224E-008	0.00000E+000	-3.76000E-001	6.42576E-004	7	...........	-327.63
	696	13.94	-3.94184E-001	1.77432E-008	0.00000E+000	-3.92000E-001	6.55076E-004	7	...........	-327.63
	704	14.1	-4.10182E-001	1.79682E-008	0.00000E+000	-4.08000E-001	6.38410E-004	7	...........	-327.63
	712	14.26	-4.26220E-001	1.80724E-008	0.00000E+000	-4.24000E-001	6.55910E-004	7	...........	-327.63
	720	14.42	-4.42204E-001	1.82016E-008	0.00000E+000	-4.40000E-001	6.44243E-004	7	...........	-327.63
	728	14.58	-4.58165E-001	1.78349E-008	0.00000E+000	-4.56000E-001	6.50076E-004	7	...........	-327.63
	736	14.74	-4.74076E-001	1.75599E-008	0.00000E+000	-4.72000E-001	6.48410E-004	7	...........	-327.63
	744	14.9	-4.89995E-001	1.77724E-008	0.00000E+000	-4.88000E-001	6.45076E-004	7	...........	-327.63
	750	15.02	-5.01910E-001	1.74140E-008	0.00000E+000	-5.00000E-001	6.54243E-004	7	...........	-327.63
CURVE2	TABLE
	Pt	T	Vf	Im	Vu	Sig	Ach	IERange	Over	Temp
	#	s	V vs. Ref.	A	V	V	V	#	bits	deg C
	751	15.04	-4.99947E-001	1.73807E-008	0.00000E+000	-4.98000E-001	5.65076E-004	7	...........	-327.63
	761	15.24	-4.79919E-001	1.68723E-008	0.00000E+000	-4.78000E-001	5.53410E-004	7	...........	-327.63
	771	15.44	-4.59878E-001	1.66807E-008	0.00000E+000	-4.58000E-001	5.73410E-004	7	...........	-327.63
	781	15.64	-4.39803E-001	1.65515E-008	0.00000E+000	-4.38000E-001	5.75910E-004	7	...........	-327.63
	791	15.84	-4.19755E-001	1.60473E-008	0.00000E+000	-4.18000E-001	5.77576E-004	7	...........	-327.63
	801	16.04	-3.99756E-001	1.58723E-008	0.00000E+000	-3.98000E-001	5.93410E-004	7	...........	-327.63
	811	16.24	-3.79708E-001	1.53515E-008	0.00000E+000	-3.78000E-001	5.69243E-004	7	...........	-327.63
	821	16.44	-3.59617E-001	1.44931E-008	0.00000E+000	-3.58000E-001	5.52576E-004	7	...........	-327.63
	831	16.64	-3.39535E-001	1.38431E-008	0.00000E+000	-3.38000E-001	5.65076E-004	7	...........	-327.63
	841	16.84	-3.19518E-001	1.35972E-008	0.00000E+000	-3.18000E-001	5.75910E-004	7	...........	-327.63
	851	17.04	-2.99453E-001	1.26639E-008	0.00000E+000	-2.98000E-001	5.66743E-004	7	...........	-327.63
	861	17.24	-2.79347E-001	1.19263E-008	0.00000E+000	-2.78000E-001	5.56743E-004	7	...........	-327.63
	871	17.44	-2.59194E-001	1.06638E-008	0.00000E+000	-2.58000E-001	5.65076E-004	7	...........	-327.63
	881	17.64	-2.39112E-001	1.00179E-008	0.00000E+000	-2.38000E-001	5.66743E-004	7	...........	-327.63
	891	17.84	-2.18861E-001	9.58041E-009	0.00000E+000	-2.18000E-001	5.70076E-004	7	...........	-327.63
	901	18.04	-1.98783E-001	8.82621E-009	0.00000E+000	-1.98000E-001	5.62576E-004	7	...........	-327.63
	911	18.24	-1.78692E-001	8.06369E-009	0.00000E+000	-1.78000E-001	5.65910E-004	7	...........	-327.63
	921	18.44	-1.58569E-001	7.09698E-009	0.00000E+000	-1.58000E-001	5.55076E-004	7	...........	-327.63
	931	18.64	-1.38447E-001	6.56780E-009	0.00000E+000	-1.38000E-001	5.51743E-004	7	...........	-327.63
	941	18.84	-1.18318E-001	5.35942E-009	0.00000E+000	-1.18000E-001	5.50076E-004	7	...........	-327.63
	951	19.04	-9.82003E-002	4.55105E-009	0.00000E+000	-9.80000E-002	5.61743E-004	7	...........	-327.63
	961	19.24	-7.80295E-002	3.30934E-009	0.00000E+000	-7.80000E-002	5.65076E-004	7	...........	-327.63
	971	19.44	-5.78524E-002	2.05929E-009	0.00000E+000	-5.80000E-002	5.85076E-004	7	...........	-327.63
	981	19.64	-3.77170E-002	1.03426E-009	0.00000E+000	-3.80000E-002	5.66743E-004	7	...........	-327.63
	991	19.84	-1.76120E-002	5.25905E-010	0.00000E+000	-1.80000E-002	5.65910E-004	7	...........	-327.63
	1001	20.04	2.49509E-003	-5.53302E-010	0.00000E+000	2.00000E-003	5.45910E-004	7	...........	-327.63
	1011	20.24	2.26338E-002	-1.05749E-009	0.00000E+000	2.20000E-002	5.64243E-004	7	...........	-327.63
	1021	20.44	4.27076E-002	-2.01169E-009	0.00000E+000	4.20000E-002	5.42576E-004	7	...........	-327.63
	1031	20.64	6.27726E-002	-2.71588E-009	0.00000E+000	6.20000E-002	5.58410E-004	7	...........	-327.63
	1041	20.84	8.28376E-002	-3.37424E-009	0.00000E+000	8.20000E-002	5.57576E-004	7	...........	-327.63
	1051	21.04	1.02901E-001	-4.30761E-009	0.00000E+000	1.02000E-001	5.56743E-004	7	...........	-327.63
	1061	21.24	1.22979E-001	-5.17847E-009	0.00000E+000	1.22000E-001	5.58410E-004	7	...........	-327.63
	1071	21.44	1.43029E-001	-5.44098E-009	0.00000E+000	1.42000E-001	3.51743E-004	7	...........	-327.63
	1081	21.64	1.63035E-001	-5.72016E-009	0.00000E+000	1.62000E-001	3.44243E-004	7	...........	-327.63
	1091	21.84	1.83019E-001	-6.11601E-009	0.00000E+000	1.82000E-001	3.35910E-004	7	...........	-327.63
	1101	22.04	2.03007E-001	-6.07017E-009	0.00000E+000	2.02000E-001	3.51743E-004	7	...........	-327.63
	1111	22.24	2.23007E-001	-6.39102E-009	0.00000E+000	2.22000E-001	3.46743E-004	7	...........	-327.63
	1121	22.44	2.42965E-001	-6.59519E-009	0.00000E+000	2.42000E-001	3.36743E-004	7	...........	-327.63
	1131	22.64	2.62922E-001	-6.73687E-009	0.00000E+000	2.62000E-001	3.16743E-004	7	...........	-327.63
	1141	22.84	2.82845E-001	-6.82854E-009	0.00000E+000	2.82000E-001	3.31743E-004	7	...........	-327.63
	1151	23.04	3.02785E-001	-6.74520E-009	0.00000E+000	3.02000E-001	3.15910E-004	7	...........	-327.63
	1161	23.24	3.22720E-001	-6.71187E-009	0.00000E+000	3.22000E-001	3.24243E-004	7	...........	-327.63
	1171	23.44	3.42635E-001	-6.57853E-009	0.00000E+000	3.42000E-001	3.21743E-004	7	...........	-327.63
	1181	23.64	3.62539E-001	-6.36185E-009	0.00000E+000	3.62000E-001	3.14243E-004	7	...........	-327.63
	1191	23.84	3.82472E-001	-5.99934E-009	0.00000E+000	3.82000E-001	3.35910E-004	7	...........	-327.63
	1201	24.04	4.02372E-001	-5.99101E-009	0.00000E+000	4.02000E-001	3.45910E-004	7	...........	-327.63
	1211	24.24	4.22253E-001	-5.81600E-009	0.00000E+000	4.22000E-001	3.48410E-004	7	...........	-327.63
	1221	24.44	4.42164E-001	-5.09930E-009	0.00000E+000	4.42000E-001	3.40076E-004	7	...........	-327.63
	1231	24.64	4.62061E-001	-4.82429E-009	0.00000E+000	4.62000E-001	3.35076E-004	7	...........	-327.63
	1241	24.84	4.81993E-001	-4.34094E-009	0.00000E+000	4.82000E-001	3.39243E-004	7	...........	-327.63
	1251	25.04	4.97875E-001	-3.94926E-009	0.00000E+000	4.98000E-001	3.45076E-004	7	...........	-327.63
	1261	25.24	4.77833E-001	-3.43258E-009	0.00000E+000	4.78000E-001	3.69243E-004	7	...........	-327.63
	1271	25.44	4.57747E-001	-2.93256E-009	0.00000E+000	4.58000E-001	3.24243E-004	7	...........	-327.63
	1281	25.64	4.37648E-001	-2.07003E-009	0.00000E+000	4.38000E-001	3.31743E-004	7	...........	-327.63
[...]
	2750	55.02	-5.01759E-001	1.61182E-008	0.00000E+000	-5.00000E-001	3.62576E-004	7	...........	-327.63
CURVE4	TABLE
	Pt	T	Vf	Im	Vu	Sig	Ach	IERange	Over	Temp
	#	s	V vs. Ref.	A	V	V	V	#	bits	deg C
	2751	55.04	-4.99756E-001	1.62515E-008	0.00000E+000	-4.98000E-001	3.43410E-004	7	...........	-327.63
	2754	55.1	-4.93752E-001	1.63473E-008	0.00000E+000	-4.92000E-001	3.51743E-004	7	...........	-327.63
	2757	55.16	-4.87782E-001	1.65223E-008	0.00000E+000	-4.86000E-001	3.64243E-004	7	...........	-327.63
	2760	55.22	-4.81809E-001	1.65390E-008	0.00000E+000	-4.80000E-001	3.33410E-004	7	...........	-327.63
	2763	55.28	-4.75820E-001	1.67307E-008	0.00000E+000	-4.74000E-001	3.50910E-004	7	...........	-327.63
	2766	55.34	-4.69827E-001	1.67515E-008	0.00000E+000	-4.68000E-001	3.39243E-004	7	...........	-327.63
	2769	55.4	-4.63827E-001	1.68640E-008	0.00000E+000	-4.62000E-001	3.69243E-004	7	...........	-327.63
	2772	55.46	-4.57868E-001	1.69557E-008	0.00000E+000	-4.56000E-001	3.42576E-004	7	...........	-327.63
	2775	55.52	-4.51891E-001	1.68807E-008	0.00000E+000	-4.50000E-001	3.33410E-004	7	...........	-327.63
	2778	55.58	-4.45902E-001	1.70265E-008	0.00000E+000	-4.44000E-001	3.53410E-004	7	...........	-327.63
	2781	55.64	-4.39909E-001	1.71849E-008	0.00000E+000	-4.38000E-001	3.51743E-004	7	...........	-327.63
	2784	55.7	-4.33937E-001	1.72682E-008	0.00000E+000	-4.32000E-001	3.79243E-004	7	...........	-327.63
	2787	55.76	-4.27935E-001	1.73349E-008	0.00000E+000	-4.26000E-001	3.57576E-004	7	...........	-327.63
	2790	55.82	-4.21940E-001	1.72265E-008	0.00000E+000	-4.20000E-001	3.53410E-004	7	...........	-327.63
	2793	55.88	-4.15947E-001	1.73474E-008	0.00000E+000	-4.14000E-001	3.48410E-004	7	...........	-327.63
	2796	55.94	-4.09963E-001	1.72099E-008	0.00000E+000	-4.08000E-001	3.60910E-004	7	...........	-327.63
	2799	56	-4.04004E-001	1.75057E-008	0.00000E+000	-4.02000E-001	3.49243E-004	7	...........	-327.63
	2802	56.06	-3.98010E-001	1.73640E-008	0.00000E+000	-3.96000E-001	3.58410E-004	7	...........	-327.63
	2805	56.12	-3.92007E-001	1.75265E-008	0.00000E+000	-3.90000E-001	3.45076E-004	7	...........	-327.63
	2808	56.18	-3.86011E-001	1.74599E-008	0.00000E+000	-3.84000E-001	3.56743E-004	7	...........	-327.63
	2811	56.24	-3.80041E-001	1.75390E-008	0.00000E+000	-3.78000E-001	3.25076E-004	7	...........	-327.63
	2814	56.3	-3.74052E-001	1.76432E-008	0.00000E+000	-3.72000E-001	3.40076E-004	7	...........	-327.63
	2817	56.36	-3.68048E-001	1.74599E-008	0.00000E+000	-3.66000E-001	3.55910E-004	7	...........	-327.63
	2820	56.42	-3.62059E-001	1.76307E-008	0.00000E+000	-3.60000E-001	3.44243E-004	7	...........	-327.63
	2823	56.48	-3.56089E-001	1.76807E-008	0.00000E+000	-3.54000E-001	3.31743E-004	7	...........	-327.63
	2826	56.54	-3.50101E-001	1.75640E-008	0.00000E+000	-3.48000E-001	3.63410E-004	7	...........	-327.63
	2829	56.6	-3.44110E-001	1.76682E-008	0.00000E+000	-3.42000E-001	3.41743E-004	7	...........	-327.63
	2832	56.66	-3.38103E-001	1.78140E-008	0.00000E+000	-3.36000E-001	3.62576E-004	7	...........	-327.63
	2835	56.72	-3.32130E-001	1.78724E-008	0.00000E+000	-3.30000E-001	3.30076E-004	7	...........	-327.63
	2838	56.78	-3.26137E-001	1.77849E-008	0.00000E+000	-3.24000E-001	3.50076E-004	7	...........	-327.63
	2841	56.84	-3.20148E-001	1.77890E-008	0.00000E+000	-3.18000E-001	3.50076E-004	7	...........	-327.63
	2844	56.9	-3.14135E-001	1.78974E-008	0.00000E+000	-3.12000E-001	3.69243E-004	7	...........	-327.63
	2847	56.96	-3.08142E-001	1.77890E-008	0.00000E+000	-3.06000E-001	3.39243E-004	7	...........	-327.63
	2850	57.02	-3.02182E-001	1.77015E-008	0.00000E+000	-3.00000E-001	3.45910E-004	7	...........	-327.63
	2853	57.08	-2.96196E-001	1.77515E-008	0.00000E+000	-2.94000E-001	3.49243E-004	7	...........	-327.63
	2856	57.14	-2.90186E-001	1.78349E-008	0.00000E+000	-2.88000E-001	3.54243E-004	7	...........	-327.63
	2859	57.2	-2.84186E-001	1.77765E-008	0.00000E+000	-2.82000E-001	3.37576E-004	7	...........	-327.63
	2862	57.26	-2.78202E-001	1.78390E-008	0.00000E+000	-2.76000E-001	3.38410E-004	7	...........	-327.63
	2865	57.32	-2.72217E-001	1.78265E-008	0.00000E+000	-2.70000E-001	3.50076E-004	7	...........	-327.63
	2868	57.38	-2.66210E-001	1.77140E-008	0.00000E+000	-2.64000E-001	3.76743E-004	7	...........	-327.63
	2871	57.44	-2.60206E-001	1.76515E-008	0.00000E+000	-2.58000E-001	3.62576E-004	7	...........	-327.63
	2874	57.5	-2.54241E-001	1.77682E-008	0.00000E+000	-2.52000E-001	3.41743E-004	7	...........	-327.63
	2877	57.56	-2.48232E-001	1.77974E-008	0.00000E+000	-2.46000E-001	3.45910E-004	7	...........	-327.63
	2880	57.62	-2.42285E-001	1.78057E-008	0.00000E+000	-2.40000E-001	3.49243E-004	7	...........	-327.63
	2883	57.68	-2.36251E-001	1.77890E-008	0.00000E+000	-2.34000E-001	3.60076E-004	7	...........	-327.63
	2886	57.74	-2.30270E-001	1.76849E-008	0.00000E+000	-2.28000E-001	3.40076E-004	7	...........	-327.63
	2889	57.8	-2.24279E-001	1.75140E-008	0.00000E+000	-2.22000E-001	3.52576E-004	7	...........	-327.63
	2892	57.86	-2.18287E-001	1.75557E-008	0.00000E+000	-2.16000E-001	3.41743E-004	7	...........	-327.63
	2895	57.92	-2.12289E-001	1.76224E-008	0.00000E+000	-2.10000E-001	3.40910E-004	7	...........	-327.63
	2898	57.98	-2.06277E-001	1.79557E-008	0.00000E+000	-2.04000E-001	3.40076E-004	7	...........	-327.63
	2901	58.04	-2.00319E-001	1.79141E-008	0.00000E+000	-1.98000E-001	3.53410E-004	7	...........	-327.63
	2904	58.1	-1.94327E-001	1.79599E-008	0.00000E+000	-1.92000E-001	3.38410E-004	7	...........	-327.63
	2907	58.16	-1.88327E-001	1.79307E-008	0.00000E+000	-1.86000E-001	3.26743E-004	7	...........	-327.63
	2910	58.22	-1.82325E-001	1.78724E-008	0.00000E+000	-1.80000E-001	3.51743E-004	7	...........	-327.63
	2913	58.28	-1.76338E-001	1.79016E-008	0.00000E+000	-1.74000E-001	3.38410E-004	7	...........	-327.63
	2916	58.34	-1.70343E-001	1.81349E-008	0.00000E+000	-1.68000E-001	3.49243E-004	7	...........	-327.63
	2919	58.4	-1.64365E-001	1.82224E-008	0.00000E+000	-1.62000E-001	3.52576E-004	7	...........	-327.63
	2922	58.46	-1.58351E-001	1.81682E-008	0.00000E+000	-1.56000E-001	3.41743E-004	7	...........	-327.63
	2925	58.52	-1.52385E-001	1.80266E-008	0.00000E+000	-1.50000E-001	3.57576E-004	7	...........	-327.63
	2928	58.58	-1.46384E-001	1.78641E-008	0.00000E+000	-1.44000E-001	3.60076E-004	7	...........	-327.63
	2931	58.64	-1.40405E-001	1.80474E-008	0.00000E+000	-1.38000E-001	3.54243E-004	7	...........	-327.63
	2934	58.7	-1.34400E-001	1.79807E-008	0.00000E+000	-1.32000E-001	3.45076E-004	7	...........	-327.63
	2937	58.76	-1.28402E-001	1.80516E-008	0.00000E+000	-1.26000E-001	3.63410E-004	7	...........	-327.63
	2940	58.82	-1.22427E-001	1.78182E-008	0.00000E+000	-1.20000E-001	3.40076E-004	7	...........	-327.63
	2943	58.88	-1.16424E-001	1.78557E-008	0.00000E+000	-1.14000E-001	3.38410E-004	7	...........	-327.63
	2946	58.94	-1.10434E-001	1.79516E-008	0.00000E+000	-1.08000E-001	3.56743E-004	7	...........	-327.63
	2949	59	-1.04429E-001	1.79474E-008	0.00000E+000	-1.02000E-001	3.46743E-004	7	...........	-327.63
	2952	59.06	-9.84603E-002	1.80016E-008	0.00000E+000	-9.60000E-002	3.35910E-004	7	...........	-327.63
	2955	59.12	-9.24632E-002	1.77932E-008	0.00000E+000	-9.00000E-002	3.50076E-004	7	...........	-327.63
	2958	59.18	-8.64932E-002	1.77390E-008	0.00000E+000	-8.40000E-002	3.58410E-004	7	...........	-327.63
	2961	59.24	-8.04774E-002	1.77557E-008	0.00000E+000	-7.80000E-002	3.51743E-004	7	...........	-327.63
	2964	59.3	-7.44887E-002	1.79474E-008	0.00000E+000	-7.20000E-002	3.35076E-004	7	...........	-327.63
	2967	59.36	-6.84999E-002	1.79641E-008	0.00000E+000	-6.60000E-002	3.57576E-004	7	...........	-327.63
	2970	59.42	-6.25207E-002	1.80474E-008	0.00000E+000	-6.00000E-002	3.54243E-004	7	...........	-327.63
	2973	59.48	-5.65062E-002	1.81182E-008	0.00000E+000	-5.40000E-002	3.47576E-004	7	...........	-327.63
	2976	59.54	-5.05524E-002	1.81891E-008	0.00000E+000	-4.80000E-002	3.32576E-004	7	...........	-327.63
	2979	59.6	-4.45391E-002	1.82266E-008	0.00000E+000	-4.20000E-002	3.50076E-004	7	...........	-327.63
	2982	59.66	-3.85482E-002	1.80974E-008	0.00000E+000	-3.60000E-002	3.39243E-004	7	...........	-327.63
	2985	59.72	-3.25545E-002	1.82557E-008	0.00000E+000	-3.00000E-002	3.63410E-004	7	...........	-327.63
	2988	59.78	-2.65532E-002	1.82266E-008	0.00000E+000	-2.40000E-002	3.51743E-004	7	...........	-327.63
	2991	59.84	-2.05766E-002	1.80474E-008	0.00000E+000	-1.80000E-002	3.32576E-004	7	...........	-327.63
	2994	59.9	-1.45887E-002	1.79724E-008	0.00000E+000	-1.20000E-002	3.45910E-004	7	...........	-327.63
	2997	59.96	-8.59158E-003	1.81891E-008	0.00000E+000	-6.00000E-003	3.61743E-004	7	...........	-327.63
	3000	60.02	-2.59699E-003	1.81557E-008	0.00000E+000	0.00000E+000	3.36743E-004	7	...........	-327.63